File: tomke/20240809_Si_on_TiO2/20240809/corrected Raman data export/AS_0mA.txt
-194.586	-0.0155556
-196.846	-0.0378889
-199.106	-0.0531111
-201.367	0.0191111
-203.629	0.0486667
-205.891	0.0378889
-208.154	0.0231111
-210.417	-0.0322222
-212.681	-0.0266667
-214.945	-0.0368889
-217.21	-0.0436667
-219.475	0.109111
-221.741	0.0471111
-224.008	-0.0112222
-226.275	-0.0257778
-228.542	0.0388889
-230.81	0.0271111
-233.079	0.0144444
-235.348	-0.0527778
-237.618	0.0407778
-239.888	-0.0384444
-242.159	-0.0613333
-244.43	0.00633333
-246.702	-0.00133333
-248.974	0.0275556
-251.247	0.00355556
-253.52	-0.011
-255.794	-0.0383333
-258.069	0.00366667
-260.344	0.0288889
-262.62	-0.0254444
-264.896	0.061
-267.173	0.0712222
-269.45	0.101
-271.728	0.0773333
-274.006	0.0732222
-276.285	0.179444
-278.564	0.131111
-280.844	0.165333
-283.125	0.227
-285.406	0.238333
-287.688	0.278778
-289.97	0.227778
-292.252	0.269556
-294.536	0.237889
-296.82	0.287778
-299.104	0.267333
-301.389	0.268222
-303.674	0.336444
-305.96	0.291556
-308.247	0.276667
-310.534	0.283111
-312.821	0.225
-315.11	0.248778
-317.398	0.265333
-319.687	0.270111
-321.977	0.269556
-324.268	0.229333
-326.559	0.241333
-328.85	0.233889
-331.142	0.200333
-333.434	0.207
-335.728	0.170778
-338.021	0.21
-340.315	0.156444
-342.61	0.163556
-344.905	0.163778
-347.201	0.130111
-349.498	0.207889
-351.795	0.109556
-354.092	0.113556
-356.39	0.0622222
-358.689	0.0544444
-360.988	0.131778
-363.287	0.148222
-365.588	0.073
-367.889	0.149
-370.19	0.0383333
-372.492	0.0811111
-374.794	0.0768889
-377.097	0.0883333
-379.401	0.0831111
-381.705	0.0343333
-384.009	0.0501111
-386.315	0.0606667
-388.62	0.0721111
-390.927	0.112333
-393.234	0.0923333
-395.541	0.0402222
-397.849	0.119444
-400.158	0.0896667
-402.467	0.138
-404.776	0.0283333
-407.086	0.0805556
-409.397	0.0484444
-411.708	0.0558889
-414.02	0.0743333
-416.333	0.0807778
-418.646	0.0998889
-420.959	0.0456667
-423.273	0.110111
-425.588	0.0673333
-427.903	-0.00411111
-430.219	0.0782222
-432.535	0.0875556
-434.852	-0.00444444
-437.169	0.00611111
-439.487	0.101111
-441.806	0.0985556
-444.125	0.0874444
-446.445	0.0252222
-448.765	0.0294444
-451.086	0.108667
-453.407	0.0164444
-455.729	0.0496667
-458.051	0.0503333
-460.374	0.0185556
-462.698	0.0622222
-465.022	0.0216667
-467.347	-0.00933333
-469.672	0.0421111
-471.998	0.0458889
-474.324	0.0293333
-476.651	0.0192222
-478.978	0.0221111
-481.306	0.0283333
-483.635	0.0704444
-485.964	0.101111
-488.294	0.120889
-490.624	0.0948889
-492.955	0.0277778
-495.286	0.0796667
-497.618	0.115111
-499.951	0.106333
-502.284	0.124556
-504.618	0.141444
-506.952	0.244222
-509.287	0.363778
-511.622	0.498111
-513.958	1.18933
-516.294	4.04833
-518.631	7.90511
-520.969	6.76111
-523.307	3.21489
-525.646	1.32533
-527.985	0.505444
-530.325	0.310111
-532.665	0.246889
-535.006	0.209444
-537.348	0.179222
-539.69	0.0934444
-542.033	0.0787778
-544.376	0.0364444
-546.72	0.0827778
-549.064	0.0808889
-551.409	0.0494444
-553.755	0.0675556
-556.101	0.00544444
-558.448	0.0891111
-560.795	-0.0162222
-563.143	0.0678889
-565.491	0.0655556
-567.84	-0.00322222
-570.189	0.0213333
-572.539	-0.031
-574.89	0.0968889
-577.241	0.0621111
-579.593	0.0922222
-581.945	-0.023
-584.298	0.046
-586.652	0.0714444
-589.006	0.0331111
-591.361	0.0653333
-593.716	0.0346667
-596.072	0.00366667
-598.428	0.0473333
-600.785	0.0661111
-603.142	0.0381111
-605.5	0.0462222
-607.859	0.0522222
-610.218	0.0966667
-612.578	0.0748889
-614.938	0.0711111
-617.299	0.0407778
-619.661	0.0845556
-622.023	0.0648889
-624.385	0.000777778
-626.749	0.0815556
-629.112	0.0367778
-631.477	0.0428889
-633.842	0.0565556
-636.207	-0.00466667
-638.573	0.0208889
-640.94	0.00777778
-643.307	0.0341111
-645.675	0.0151111
-648.043	0.0238889
-650.412	0.0428889
-652.782	0.0411111
-655.152	0.0158889
-657.523	0.0126667
-659.894	0.0576667
-662.266	-0.00111111
-664.638	-0.00744444
-667.011	0.0325556
-669.385	0.0616667
-671.759	0.0142222
-674.134	0.0156667
-676.509	-0.0266667
-678.885	-0.0115556
-681.261	-0.0331111
-683.638	-0.0463333
-686.016	-0.00344444
-688.394	-0.00144444
-690.773	0.0155556
-693.152	0.0548889
-695.532	0.0154444
-697.913	0.00855556
-700.294	0.00122222
-702.676	0.0483333
-705.058	0.000555556
-707.441	-0.0418889
-709.824	-0.00544444
-712.208	-0.0353333
-714.593	0.0227778
-716.978	-0.0268889
-719.364	-0.00833333
-721.75	0.0291111
-724.137	-0.0214444
-726.525	0.006
-728.913	0.0513333
-731.301	-0.0377778
-733.691	0.0247778
-736.08	0.00377778
-738.471	-0.0113333
-740.862	-0.0323333
-743.253	0.0256667
-745.646	0.0315556
-748.038	0.022
-750.432	-0.00988889
-752.826	-0.00788889
-755.22	0.0635556
-757.615	-0.0194444
-760.011	0.0365556
-762.407	0.0123333
-764.804	0.0153333
-767.201	0.00377778
-769.599	0.0468889
-771.998	0.0426667
-774.397	-0.0215556
-776.797	0.0376667
-779.197	0.0127778
-781.598	0.0233333
-784	0.0305556
-786.402	0.0668889
-788.805	0.0444444
-791.208	0.00122222
-793.612	-0.0378889
-796.016	0.0331111
-798.421	0.0368889
-800.827	0.0565556
-803.233	-0.0462222
-805.64	-0.0114444
-808.048	0.0265556
-810.456	-0.0276667
-812.864	0.00166667
-815.274	0.0756667
-817.683	0.0495556
-819.612	0.0461111