File: tomke/20240809_Si_on_TiO2/20240809/corrected Raman data export/AS_40mA.txt
-194.586	-0.263742
-196.846	-0.204292
-199.106	-0.240295
-201.367	-0.359084
-203.629	-0.33342
-205.891	-0.337452
-208.154	-0.213548
-210.417	-0.313061
-212.681	-0.169074
-214.945	-0.221033
-217.21	-0.264679
-219.475	-0.282388
-221.741	-0.195422
-224.008	-0.179929
-226.275	-0.298224
-228.542	-0.232391
-230.81	-0.364503
-233.079	-0.354745
-235.348	-0.278852
-237.618	-0.281378
-239.888	-0.263417
-242.159	-0.325765
-244.43	-0.251527
-246.702	-0.32392
-248.974	-0.256185
-251.247	-0.262231
-253.52	-0.186082
-255.794	-0.13366
-258.069	-0.212411
-260.344	-0.100668
-262.62	-0.106238
-264.896	-0.00597689
-267.173	0.0360942
-269.45	0.277531
-271.728	0.54659
-274.006	0.774821
-276.285	0.95734
-278.564	1.13088
-280.844	1.41062
-283.125	1.57425
-285.406	1.86783
-287.688	1.87539
-289.97	1.84727
-292.252	2.15615
-294.536	1.97279
-296.82	1.99957
-299.104	2.07716
-301.389	1.72698
-303.674	1.64094
-305.96	1.61447
-308.247	1.58021
-310.534	1.28267
-312.821	1.39507
-315.11	1.52043
-317.398	1.32043
-319.687	1.31024
-321.977	1.55847
-324.268	1.21927
-326.559	1.32501
-328.85	1.30403
-331.142	1.32334
-333.434	1.21002
-335.728	1.13141
-338.021	1.00223
-340.315	1.16961
-342.61	1.15567
-344.905	1.13798
-347.201	0.982555
-349.498	1.01437
-351.795	0.935826
-354.092	1.08927
-356.39	0.926567
-358.689	0.939147
-360.988	0.923557
-363.287	0.912389
-365.588	1.03822
-367.889	0.872379
-370.19	0.7869
-372.492	0.906699
-374.794	0.809061
-377.097	0.649733
-379.401	0.728818
-381.705	0.799179
-384.009	0.82176
-386.315	0.879273
-388.62	0.853836
-390.927	0.78616
-393.234	0.734395
-395.541	0.683684
-397.849	0.757465
-400.158	0.77682
-402.467	0.699943
-404.776	0.910821
-407.086	0.744921
-409.397	0.680005
-411.708	0.757349
-414.02	0.721641
-416.333	0.721445
-418.646	0.76538
-420.959	0.877077
-423.273	0.947284
-425.588	0.735396
-427.903	0.7167
-430.219	0.674009
-432.535	0.479367
-434.852	0.71085
-437.169	0.686144
-439.487	0.622295
-441.806	0.441308
-444.125	0.374745
-446.445	0.61114
-448.765	0.521737
-451.086	0.563831
-453.407	0.607808
-455.729	0.584894
-458.051	0.758752
-460.374	0.548144
-462.698	0.680668
-465.022	0.707422
-467.347	0.85701
-469.672	0.726908
-471.998	0.986331
-474.324	1.03452
-476.651	1.00676
-478.978	1.30132
-481.306	1.49183
-483.635	1.61008
-485.964	1.88653
-488.294	2.28088
-490.624	3.03845
-492.955	3.99575
-495.286	5.55751
-497.618	7.80865
-499.951	10.6348
-502.284	12.2501
-504.618	11.5942
-506.952	9.26586
-509.287	6.36044
-511.622	4.47226
-513.958	3.07844
-516.294	2.2291
-518.631	1.87262
-520.969	1.35766
-523.307	1.18478
-525.646	0.967936
-527.985	0.859355
-530.325	0.715332
-532.665	0.651273
-535.006	0.634059
-537.348	0.477058
-539.69	0.339266
-542.033	0.245321
-544.376	0.222132
-546.72	0.366441
-549.064	0.256482
-551.409	0.326206
-553.755	0.228821
-556.101	0.32019
-558.448	0.217618
-560.795	0.0840071
-563.143	0.224203
-565.491	0.108674
-567.84	0.222132
-570.189	0.20197
-572.539	0.0793084
-574.89	0.205751
-577.241	0.224028
-579.593	0.242651
-581.945	0.219051
-584.298	0.317045
-586.652	0.28088
-589.006	0.220128
-591.361	0.284148
-593.716	0.223522
-596.072	0.406825
-598.428	0.353207
-600.785	0.452853
-603.142	0.271205
-605.5	0.127326
-607.859	0.264807
-610.218	0.29466
-612.578	0.128578
-614.938	0.246516
-617.299	0.275796
-619.661	0.111399
-622.023	0.297908
-624.385	0.101447
-626.749	0.140357
-629.112	0.224107
-631.477	0.149127
-633.842	0.257771
-636.207	0.160091
-638.573	0.225198
-640.94	0.0572942
-643.307	0.128233
-645.675	0.2104
-648.043	0.18042
-650.412	0.138608
-652.782	0.14419
-655.152	0.0292693
-657.523	0.157735
-659.894	0.12658
-662.266	0.0894276
-664.638	0.20222
-667.011	0.0839876
-669.385	0.150588
-671.759	0.210247
-674.134	0.160542
-676.509	0.0142187
-678.885	0.061296
-681.261	0.0409778
-683.638	0.0807022
-686.016	0.0860036
-688.394	0.0275804
-690.773	-0.00946311
-693.152	-0.0483893
-695.532	-0.0623058
-697.913	0.060784
-700.294	0.0262844
-702.676	-0.0755253
-705.058	-0.0970507
-707.441	-0.0937813
-709.824	0.0210578
-712.208	-0.0276996
-714.593	-0.0931911
-716.978	-0.00282489
-719.364	0.0133031
-721.75	-0.066464
-724.137	-0.0614187
-726.525	-0.149493
-728.913	-0.0143893
-731.301	0.0110507
-733.691	-0.04456
-736.08	-0.0266578
-738.471	-0.00259022
-740.862	-0.0918276
-743.253	-0.020128
-745.646	-0.0639822
-748.038	0.0369938
-750.432	-0.0642987
-752.826	-0.0878382
-755.22	-0.0973013
-757.615	-0.107355
-760.011	-0.0884409
-762.407	0.0128036
-764.804	-0.020944
-767.201	-0.0956569
-769.599	-0.0259271
-771.998	-0.0461707
-774.397	-0.0131787
-776.797	-0.0861173
-779.197	-0.0496942
-781.598	-0.0764231
-784	-0.0474898
-786.402	0.0378471
-788.805	-0.0181404
-791.208	-0.0422969
-793.612	0.0265724
-796.016	-0.0646364
-798.421	-0.102926
-800.827	-0.0106169
-803.233	0.0393547
-805.64	-0.112423
-808.048	-0.0631449
-810.456	-0.090432
-812.864	-0.0463022
-815.274	-0.004304
-817.683	-0.123461
-819.612	-0.159511