File: tomke/20240809_Si_on_TiO2/20240809/corrected Raman data export/AS_70mA.txt
-194.586	-1.86345
-196.846	-2.01193
-199.106	-1.90377
-201.367	-1.78513
-203.629	-1.97957
-205.891	-1.90439
-208.154	-2.05444
-210.417	-1.99523
-212.681	-2.03499
-214.945	-1.82979
-217.21	-1.99424
-219.475	-2.00922
-221.741	-1.98766
-224.008	-1.97773
-226.275	-2.10247
-228.542	-2.15047
-230.81	-2.0573
-233.079	-1.80603
-235.348	-1.9926
-237.618	-1.9658
-239.888	-2.08086
-242.159	-2.16601
-244.43	-2.11156
-246.702	-1.96539
-248.974	-1.87514
-251.247	-2.00489
-253.52	-1.84175
-255.794	-1.84718
-258.069	-1.88669
-260.344	-1.80995
-262.62	-1.6309
-264.896	-1.33265
-267.173	-0.862588
-269.45	-0.721196
-271.728	-0.0395578
-274.006	0.384507
-276.285	1.21936
-278.564	1.80399
-280.844	1.58116
-283.125	2.40353
-285.406	2.64587
-287.688	2.67626
-289.97	3.27471
-292.252	3.46433
-294.536	3.12559
-296.82	2.9253
-299.104	3.59818
-301.389	3.56405
-303.674	3.12152
-305.96	2.49383
-308.247	2.44309
-310.534	2.53094
-312.821	2.62863
-315.11	3.63046
-317.398	2.94087
-319.687	2.07688
-321.977	1.82652
-324.268	3.12378
-326.559	2.22696
-328.85	2.13018
-331.142	2.6961
-333.434	2.89687
-335.728	2.636
-338.021	2.29357
-340.315	2.64948
-342.61	1.74988
-344.905	2.06824
-347.201	2.13832
-349.498	2.17118
-351.795	1.97932
-354.092	1.71423
-356.39	2.50376
-358.689	2.1299
-360.988	1.73114
-363.287	1.71465
-365.588	1.7705
-367.889	2.01202
-370.19	1.48252
-372.492	2.08722
-374.794	1.14501
-377.097	1.67106
-379.401	1.8443
-381.705	2.28044
-384.009	1.78591
-386.315	1.81077
-388.62	1.93248
-390.927	2.24412
-393.234	1.64102
-395.541	1.80939
-397.849	1.22653
-400.158	2.15199
-402.467	1.97888
-404.776	1.65157
-407.086	1.82322
-409.397	2.04517
-411.708	2.03122
-414.02	1.86156
-416.333	1.60023
-418.646	1.52521
-420.959	1.57318
-423.273	1.39772
-425.588	1.60424
-427.903	1.48843
-430.219	1.59992
-432.535	1.16245
-434.852	1.73873
-437.169	1.69096
-439.487	1.34803
-441.806	1.47869
-444.125	1.28373
-446.445	1.40655
-448.765	1.70254
-451.086	1.90225
-453.407	1.63996
-455.729	1.78742
-458.051	1.27222
-460.374	1.55116
-462.698	1.85698
-465.022	1.51892
-467.347	1.77204
-469.672	1.74797
-471.998	1.95628
-474.324	2.33866
-476.651	2.3702
-478.978	2.68569
-481.306	2.37431
-483.635	3.32665
-485.964	3.69341
-488.294	3.78679
-490.624	5.85058
-492.955	7.47435
-495.286	8.70647
-497.618	10.9518
-499.951	12.3145
-502.284	11.1709
-504.618	8.44695
-506.952	7.02999
-509.287	5.15621
-511.622	3.79276
-513.958	3.09014
-516.294	2.61858
-518.631	1.94978
-520.969	2.10059
-523.307	1.87715
-525.646	1.32313
-527.985	1.13051
-530.325	1.42385
-532.665	1.04571
-535.006	0.874957
-537.348	1.07101
-539.69	0.911833
-542.033	1.43992
-544.376	1.01872
-546.72	0.895413
-549.064	0.897671
-551.409	1.07765
-553.755	1.31626
-556.101	0.680478
-558.448	0.428728
-560.795	1.2953
-563.143	0.812256
-565.491	0.807679
-567.84	0.926236
-570.189	1.05278
-572.539	1.02121
-574.89	0.787399
-577.241	1.10875
-579.593	1.29735
-581.945	0.728009
-584.298	1.02782
-586.652	0.896903
-589.006	1.50908
-591.361	0.873267
-593.716	0.748462
-596.072	0.677462
-598.428	0.724593
-600.785	0.7854
-603.142	0.643239
-605.5	0.683469
-607.859	1.31016
-610.218	0.444421
-612.578	0.622624
-614.938	0.585162
-617.299	0.79421
-619.661	0.740734
-622.023	0.785024
-624.385	0.161882
-626.749	1.12271
-629.112	0.692543
-631.477	0.25379
-633.842	1.01385
-636.207	0.606361
-638.573	0.774132
-640.94	0.868432
-643.307	0.775011
-645.675	0.721113
-648.043	0.155802
-650.412	0.570012
-652.782	0.452884
-655.152	0.325956
-657.523	0.533478
-659.894	0.657378
-662.266	0.454879
-664.638	0.519138
-667.011	0.195628
-669.385	0.634794
-671.759	0.410324
-674.134	0.343158
-676.509	0.151533
-678.885	0.48846
-681.261	0.0661422
-683.638	0.589766
-686.016	0.275126
-688.394	0.226958
-690.773	0.00235333
-693.152	0.28961
-695.532	0.412604
-697.913	0.431524
-700.294	0.345317
-702.676	0.395164
-705.058	0.486776
-707.441	0.0982667
-709.824	0.703202
-712.208	-0.0205644
-714.593	0.346792
-716.978	0.12604
-719.364	0.14191
-721.75	0.650787
-724.137	-0.0392133
-726.525	-0.143169
-728.913	0.377242
-731.301	0.350102
-733.691	0.0584656
-736.08	0.00512889
-738.471	0.01347
-740.862	-0.512857
-743.253	0.123922
-745.646	-0.0965689
-748.038	0.122078
-750.432	-0.341789
-752.826	-0.0533767
-755.22	-0.365076
-757.615	0.0626211
-760.011	0.279634
-762.407	-0.0741211
-764.804	-0.152914
-767.201	-0.1663
-769.599	0.0362022
-771.998	-0.266844
-774.397	-0.228639
-776.797	0.0520578
-779.197	-0.0335089
-781.598	-0.115544
-784	-0.225729
-786.402	0.200162
-788.805	0.149381
-791.208	-0.109946
-793.612	-0.0776322
-796.016	-0.0632444
-798.421	-0.0266667
-800.827	-0.157914
-803.233	0.00711667
-805.64	-0.142479
-808.048	0.119212
-810.456	-0.314613
-812.864	-0.385582
-815.274	-0.161449
-817.683	0.0929111
-819.612	-0.139083