File: tomke/20240809_Si_on_TiO2/20240809/corrected Raman data export/S_40mA.txt
768.549	0.351111
766.512	0.572667
764.475	0.403333
762.437	0.371111
760.398	0.180667
758.359	0.431778
756.32	0.318444
754.28	0.370889
752.24	0.395333
750.199	0.268
748.158	0.603333
746.116	0.500889
744.074	0.273778
742.032	0.205556
739.989	0.232444
737.945	0.357556
735.901	0.428
733.857	0.263556
731.812	0.360889
729.766	0.272889
727.721	0.318
725.674	0.297556
723.628	0.489111
721.58	0.322667
719.533	0.397333
717.485	0.206444
715.436	0.148
713.387	0.426667
711.337	0.451111
709.287	0.284667
707.237	0.25
705.186	0.146444
703.135	0.438444
701.083	0.454222
699.031	0.257778
696.978	0.695556
694.925	0.599778
692.871	0.403111
690.817	0.391111
688.762	0.309111
686.707	0.293778
684.651	0.317111
682.595	0.445333
680.539	0.174
678.482	0.467333
676.425	0.361556
674.367	0.494444
672.308	0.537778
670.25	0.346
668.19	0.436667
666.131	0.452667
664.07	0.476667
662.01	0.578889
659.948	0.443556
657.887	0.547778
655.825	0.142444
653.762	0.522889
651.699	0.591778
649.636	0.599111
647.572	0.47
645.507	0.788667
643.442	0.581778
641.377	0.781556
639.311	0.538222
637.245	0.732222
635.178	0.380222
633.111	0.781333
631.043	0.798889
628.975	0.428
626.906	0.68
624.837	0.494222
622.768	0.825556
620.698	0.733333
618.627	0.546222
616.556	0.331333
614.485	0.526222
612.413	0.696444
610.34	0.744
608.267	0.636444
606.194	0.381111
604.12	0.613333
602.046	0.677556
599.971	0.862667
597.896	0.693778
595.82	0.686222
593.744	0.520667
591.667	0.449778
589.59	0.581556
587.513	0.559556
585.434	0.474222
583.356	0.469333
581.277	0.431333
579.197	0.245333
577.117	0.395111
575.037	0.392889
572.956	0.4
570.875	0.474444
568.793	0.524222
566.71	0.561556
564.628	0.428222
562.544	0.648444
560.461	0.300889
558.376	0.484889
556.292	0.568
554.206	0.429778
552.121	0.647333
550.035	0.398444
547.948	0.554444
545.861	0.549778
543.773	0.492889
541.685	0.744222
539.597	0.811556
537.508	0.610444
535.418	0.847778
533.328	0.824222
531.238	0.810222
529.147	1.29644
527.056	1.43711
524.964	1.56111
522.871	1.734
520.778	1.97022
518.685	2.43156
516.591	3.22889
514.497	3.67422
512.402	5.38022
510.307	7.69044
508.211	10.8269
506.115	14.3447
504.019	17.2242
501.922	17.1227
499.824	14.7302
497.726	11.6529
495.627	8.31311
493.528	6.498
491.429	4.84511
489.329	4.01911
487.228	3.22533
485.127	2.62133
483.026	2.392
480.924	1.97089
478.821	1.72667
476.718	1.90578
474.615	1.75556
472.511	1.34
470.407	1.51822
468.302	1.39733
466.197	1.25089
464.091	1.034
461.985	1.17289
459.878	0.920667
457.771	0.851556
455.663	0.911111
453.555	0.814889
451.446	0.823556
449.337	0.728
447.227	0.717556
445.117	0.688889
443.006	0.955111
440.895	0.914667
438.784	0.915111
436.671	0.656
434.559	0.580222
432.446	0.866
430.332	0.873556
428.218	0.803556
426.104	0.921111
423.989	0.994222
421.873	1.03644
419.757	0.875556
417.641	1.03533
415.524	1.01133
413.407	1.07867
411.289	0.748444
409.17	0.869778
407.051	1.08578
404.932	0.976889
402.812	1.14111
400.692	0.625333
398.571	1.19244
396.45	1.09556
394.328	1.11933
392.205	0.984889
390.083	1.10933
387.959	0.995111
385.836	0.968444
383.711	0.985333
381.587	1.00756
379.461	0.935333
377.336	0.871556
375.209	0.876
373.083	1.02978
370.955	1.09333
368.828	0.930222
366.7	0.880222
364.571	0.96
362.442	0.936222
360.312	0.899778
358.182	1.05778
356.051	1.02667
353.92	0.916222
351.789	1.00178
349.657	1.444
347.524	1.26933
345.391	1.08356
343.257	1.142
341.123	1.27156
338.989	1.22933
336.854	1.22622
334.718	1.34489
332.582	1.25978
330.445	1.24
328.308	1.31978
326.171	1.39133
324.033	1.35289
321.894	1.32378
319.755	1.47867
317.616	1.59867
315.476	1.37178
313.335	1.66556
311.194	1.74689
309.053	1.84667
306.911	1.96222
304.768	1.74089
302.625	2.02756
300.482	1.942
298.338	2.09556
296.194	2.15422
294.049	2.42844
291.903	2.28822
289.757	2.32133
287.611	2.502
285.464	2.32911
283.316	1.91822
281.169	1.97956
279.02	2.02778
276.871	1.93711
274.722	2.06911
272.572	1.93289
270.421	1.67378
268.271	1.27711
266.119	1.02711
263.967	0.591778
261.815	0.387111
259.662	0.0204444
257.508	-0.130444
255.355	-0.322222
253.2	-0.384
251.045	-0.394889
248.89	-0.439111
246.734	-0.441111
244.578	-0.506444
242.421	-0.553778
240.263	-0.488444
238.105	-0.445111
235.947	-0.473556
233.788	-0.479333
231.629	-0.499111
229.469	-0.536444
227.308	-0.532
225.147	-0.472667
222.986	-0.506222
220.824	-0.519778
218.662	-0.468
216.499	-0.525333
214.335	-0.555333
212.171	-0.619556
210.007	-0.486667
207.842	-0.549556
206.11	-0.471111