File: tomke/20240809_Si_on_TiO2/20240809/corrected Raman data export/S_50mA.txt
768.549	1.54424
766.512	1.3314
764.475	0.873111
762.437	0.937493
760.398	1.21427
758.359	1.43647
756.32	0.894772
754.28	1.01775
752.24	0.924093
750.199	1.24479
748.158	1.21088
746.116	0.823947
744.074	1.4784
742.032	0.650474
739.989	1.30877
737.945	1.2115
735.901	0.799103
733.857	1.06436
731.812	1.09042
729.766	1.15286
727.721	1.15603
725.674	1.13355
723.628	0.920264
721.58	0.927324
719.533	0.962758
717.485	1.17205
715.436	1.15586
713.387	1.03419
711.337	1.11048
709.287	1.08641
707.237	0.893292
705.186	0.880368
703.135	0.939972
701.083	0.879648
699.031	1.11825
696.978	0.782293
694.925	0.984489
692.871	0.969703
690.817	1.20877
688.762	1.01266
686.707	1.15167
684.651	0.942001
682.595	1.1368
680.539	1.25406
678.482	1.02719
676.425	0.608517
674.367	1.12111
672.308	0.89956
670.25	1.14275
668.19	0.902584
666.131	0.661763
664.07	0.848207
662.01	1.01952
659.948	1.17002
657.887	0.657964
655.825	0.753524
653.762	0.926359
651.699	0.99525
649.636	1.20467
647.572	1.08058
645.507	0.853149
643.442	0.867511
641.377	0.806729
639.311	1.18567
637.245	1.38655
635.178	1.20933
633.111	1.12169
631.043	1.26146
628.975	1.12544
626.906	1.03081
624.837	1.00321
622.768	0.653843
620.698	0.820882
618.627	1.17312
616.556	1.10338
614.485	0.73615
612.413	0.872881
610.34	0.873101
608.267	0.840493
606.194	0.786163
604.12	1.1568
602.046	0.881357
599.971	1.1066
597.896	0.861311
595.82	0.898247
593.744	0.878447
591.667	0.99367
589.59	0.679061
587.513	0.842386
585.434	1.04106
583.356	0.632334
581.277	0.659043
579.197	0.650241
577.117	0.966218
575.037	0.319188
572.956	0.685373
570.875	0.653034
568.793	0.881474
566.71	0.613687
564.628	0.517908
562.544	0.689954
560.461	0.615851
558.376	0.519344
556.292	0.669634
554.206	0.573009
552.121	0.754974
550.035	0.818701
547.948	0.473738
545.861	0.670951
543.773	0.734457
541.685	0.412266
539.597	0.53969
537.508	0.569883
535.418	0.975976
533.328	0.966774
531.238	0.996591
529.147	1.09387
527.056	0.857304
524.964	1.27146
522.871	1.43191
520.778	1.72753
518.685	1.71973
516.591	2.46392
514.497	3.24639
512.402	4.24527
510.307	5.90356
508.211	8.69555
506.115	11.5834
504.019	13.6259
501.922	14.4399
499.824	12.703
497.726	9.94501
495.627	7.22601
493.528	5.7731
491.429	4.36278
489.329	3.69468
487.228	2.61476
485.127	2.30937
483.026	1.80566
480.924	1.78396
478.821	1.75145
476.718	1.54486
474.615	1.25037
472.511	0.975956
470.407	1.14547
468.302	1.05095
466.197	0.578913
464.091	0.821196
461.985	0.746928
459.878	0.65433
457.771	0.668724
455.663	0.923658
453.555	0.514454
451.446	0.353386
449.337	0.634216
447.227	0.422384
445.117	0.56109
443.006	0.261476
440.895	0.500376
438.784	0.242908
436.671	0.299149
434.559	0.418517
432.446	0.297312
430.332	0.332171
428.218	0.446209
426.104	0.573546
423.989	1.00663
421.873	0.506897
419.757	0.848493
417.641	0.678879
415.524	0.361667
413.407	0.584317
411.289	0.628731
409.17	0.424883
407.051	0.607339
404.932	0.510113
402.812	0.397654
400.692	0.734338
398.571	0.557682
396.45	0.633236
394.328	0.527834
392.205	0.410158
390.083	0.419094
387.959	0.420278
385.836	0.618091
383.711	0.613022
381.587	0.542131
379.461	0.482529
377.336	0.605204
375.209	0.444947
373.083	0.355276
370.955	0.638106
368.828	0.367476
366.7	0.352789
364.571	0.573241
362.442	0.611568
360.312	0.755217
358.182	0.621248
356.051	0.579438
353.92	0.671974
351.789	0.740446
349.657	0.317699
347.524	0.330382
345.391	0.697577
343.257	0.463913
341.123	0.611782
338.989	0.650289
336.854	0.473291
334.718	0.668139
332.582	0.578118
330.445	0.331064
328.308	0.467613
326.171	0.5468
324.033	0.484843
321.894	0.502123
319.755	0.673034
317.616	0.32303
315.476	0.687439
313.335	0.81657
311.194	0.807183
309.053	0.953588
306.911	0.782508
304.768	0.954322
302.625	1.03032
300.482	1.04337
298.338	0.99187
296.194	1.23089
294.049	1.24792
291.903	1.293
289.757	1.03998
287.611	0.938574
285.464	0.831551
283.316	0.894981
281.169	0.283967
279.02	0.618612
276.871	0.459722
274.722	0.682796
272.572	0.524726
270.421	-0.111538
268.271	-0.460367
266.119	-1.00994
263.967	-1.57094
261.815	-2.20459
259.662	-2.48899
257.508	-2.91704
255.355	-3.06463
253.2	-3.22006
251.045	-3.41153
248.89	-3.42964
246.734	-3.54984
244.578	-3.63017
242.421	-3.53821
240.263	-3.60034
238.105	-3.58046
235.947	-3.64065
233.788	-3.63364
231.629	-3.63299
229.469	-3.60055
227.308	-3.60495
225.147	-3.66397
222.986	-3.64602
220.824	-3.58007
218.662	-3.63298
216.499	-3.60514
214.335	-3.59476
212.171	-3.65796
210.007	-3.63099
207.842	-3.66172
206.11	-3.68459