File: tomke/20240809_Si_on_TiO2/20240809/raw_data/Laser_532nm.txt
Wavelength(nm), Raman shift(cm^-1), Intensity(counts)
539.154,292.26,59408
539.091,290.114,59790
539.029,287.968,59745
538.967,285.821,59804
538.904,283.674,59724
538.842,281.526,59740
538.78,279.378,59786
538.717,277.229,59698
538.655,275.079,59732
538.592,272.929,59717
538.53,270.779,59771
538.468,268.628,59730
538.405,266.477,59766
538.343,264.325,59746
538.281,262.173,59721
538.218,260.02,59801
538.156,257.867,59794
538.094,255.713,59702
538.031,253.559,59738
537.969,251.404,59753
537.906,249.248,59712
537.844,247.093,59671
537.782,244.936,59780
537.719,242.779,59688
537.657,240.622,59740
537.595,238.464,59676
537.532,236.306,59782
537.47,234.147,59753
537.407,231.988,59723
537.345,229.828,59747
537.283,227.668,59741
537.22,225.507,59713
537.158,223.345,59710
537.096,221.184,59770
537.033,219.021,59691
536.971,216.858,59715
536.909,214.695,59737
536.846,212.531,59808
536.784,210.367,59669
536.721,208.202,59731
536.659,206.037,59789
536.597,203.871,59664
536.534,201.705,59755
536.472,199.538,59734
536.41,197.37,59802
536.347,195.202,59669
536.285,193.034,59758
536.222,190.865,59711
536.16,188.696,59740
536.098,186.526,59743
536.035,184.355,59653
535.973,182.185,59827
535.911,180.013,59722
535.848,177.841,59751
535.786,175.669,59730
535.723,173.496,59678
535.661,171.322,59747
535.599,169.149,59711
535.536,166.974,59775
535.474,164.799,59739
535.412,162.624,59697
535.349,160.448,59748
535.287,158.271,59757
535.225,156.094,59684
535.162,153.917,59755
535.1,151.739,59703
535.037,149.56,59747
534.975,147.381,59770
534.913,145.202,59695
534.85,143.022,59687
534.788,140.841,59682
534.726,138.66,59620
534.663,136.479,59801
534.601,134.297,59759
534.538,132.114,59720
534.476,129.931,59738
534.414,127.747,59678
534.351,125.563,59720
534.289,123.379,59717
534.227,121.194,59730
534.164,119.008,59675
534.102,116.822,59706
534.039,114.635,59739
533.977,112.448,59785
533.915,110.26,59708
533.852,108.072,59678
533.79,105.883,59714
533.728,103.694,59716
533.665,101.505,59686
533.603,99.3143,59810
533.541,97.1236,59730
533.478,94.9323,59787
533.416,92.7406,59735
533.353,90.5483,59707
533.291,88.3555,59729
533.229,86.1622,59690
533.166,83.9684,59750
533.104,81.774,59711
533.042,79.5792,59786
532.979,77.3838,59731
532.917,75.188,59720
532.854,72.9916,59724
532.792,70.7947,59728
532.73,68.5973,59664
532.667,66.3994,59764
532.605,64.2009,59716
532.543,62.002,59773
532.48,59.8025,59795
532.418,57.6025,59741
532.355,55.402,59768
532.293,53.201,59817
532.231,50.9994,59774
532.168,48.7974,59668
532.106,46.5948,59755
532.044,44.3917,59759
531.981,42.1881,59807
531.919,39.984,59775
531.857,37.7794,59809
531.794,35.5743,59818
531.732,33.3686,59814
531.669,31.1624,59716
531.607,28.9557,59759
531.545,26.7485,59821
531.482,24.5407,59907
531.42,22.3325,59815
531.358,20.1237,59780
531.295,17.9144,59826
531.233,15.7046,59892
531.17,13.4943,59824
531.108,11.2834,59981
531.046,9.07205,60062
530.983,6.86016,60286
530.921,4.64775,60947
530.859,2.43482,632470
530.796,0.221373,2397387
530.734,-1.9926,649204
530.671,-4.20708,182449
530.609,-6.4221,76482
530.547,-8.63763,61279
530.484,-10.8537,61032
530.422,-13.0703,60826
530.36,-15.2873,60940
530.297,-17.505,60913
530.235,-19.7231,61428
530.173,-21.9418,61825
530.11,-24.1609,61754
530.048,-26.3806,61677
529.985,-28.6009,61701
529.923,-30.8216,61396
529.861,-33.0429,61189
529.798,-35.2647,61093
529.736,-37.487,60864
529.674,-39.7098,60866
529.611,-41.9332,60456
529.549,-44.1571,60276
529.486,-46.3815,60178
529.424,-48.6064,60020
529.362,-50.8319,60015
529.299,-53.0579,60154
529.237,-55.2844,60060
529.175,-57.5114,60098
529.112,-59.739,60032
529.05,-61.9671,60050
528.988,-64.1957,60007
528.925,-66.4248,60017
528.863,-68.6545,60067
528.8,-70.8847,59974
528.738,-73.1154,59940
528.676,-75.3466,59988
528.613,-77.5784,60056
528.551,-79.8107,60091
528.489,-82.0435,60038
528.426,-84.2769,60095
528.364,-86.5107,60021
528.301,-88.7451,60016
528.239,-90.9801,59945
528.177,-93.2155,59870
528.114,-95.4515,60008
528.052,-97.688,60020
527.99,-99.9251,60026
527.927,-102.163,59984
527.865,-104.401,60017
527.802,-106.639,60015
527.74,-108.879,60035
527.678,-111.118,59949
527.615,-113.358,59986
527.553,-115.599,60005
527.491,-117.84,60031
527.428,-120.082,60035
527.366,-122.325,59996
527.304,-124.567,59924
527.241,-126.811,59978
527.179,-129.055,59930
527.116,-131.299,59975
527.054,-133.544,59912
526.992,-135.79,60042
526.929,-138.036,60039
526.867,-140.282,60049
526.805,-142.53,59986
526.742,-144.777,60044
526.68,-147.025,60005
526.617,-149.274,59991
526.555,-151.523,60031
526.493,-153.773,59945
526.43,-156.023,59991
526.368,-158.274,60004
526.306,-160.526,59971
526.243,-162.778,59942
526.181,-165.03,60035
526.118,-167.283,59920
526.056,-169.536,60016
525.994,-171.791,59988
525.931,-174.045,60030
525.869,-176.3,60062
525.807,-178.556,60147
525.744,-180.812,60000
525.682,-183.069,60061
525.62,-185.326,59970
525.557,-187.584,60058
525.495,-189.842,60004
525.432,-192.101,60086
525.37,-194.36,59949
525.308,-196.62,59977
525.245,-198.881,59922
525.183,-201.142,60010
525.121,-203.403,60049
525.058,-205.666,59990
524.996,-207.928,60033
524.933,-210.191,59932
524.871,-212.455,59989
524.809,-214.719,60107
524.746,-216.984,59974
524.684,-219.249,59952
524.622,-221.515,60004
524.559,-223.782,59940
524.497,-226.049,60029
524.434,-228.316,59988
524.372,-230.584,59977
524.31,-232.853,59940
524.247,-235.122,60040
524.185,-237.391,59875
524.123,-239.661,59960
524.06,-241.932,59947
523.998,-244.203,59989
523.936,-246.475,60021
523.873,-248.748,60016
523.811,-251.02,59973
523.748,-253.294,60015
523.686,-255.568,59914
523.624,-257.842,59990
523.561,-260.117,60000
523.499,-262.393,59930
523.437,-264.669,60007
523.374,-266.946,59998
523.312,-269.223,59999
523.249,-271.501,59928
523.187,-273.779,59950
523.125,-276.058,60010
523.062,-278.337,60014
523,-280.617,59945
522.938,-282.898,59986
522.875,-285.179,60036
522.813,-287.46,59989
522.75,-289.742,60032
522.688,-292.025,59845
522.626,-294.308,59982
522.563,-296.592,60011
522.501,-298.876,59964
522.451,-300.704,60050