File: tomke/20240809_Si_on_TiO2/20240809/raw_data/laser_0A_1sec_4acc_60mW_671nm.txt
Wavelength(nm), Raman shift(cm^-1), Intensity(counts)
678.12,157.811,59588
677.929,153.653,59857
677.738,149.493,59786
677.547,145.33,59807
677.355,141.165,59781
677.164,136.998,59862
676.973,132.829,59796
676.782,128.657,59751
676.591,124.482,59846
676.4,120.306,59853
676.209,116.127,59854
676.017,111.945,59840
675.826,107.762,59816
675.635,103.576,59811
675.444,99.3872,59807
675.253,95.1963,59839
675.062,91.0031,59831
674.871,86.8075,59777
674.679,82.6096,59840
674.488,78.4092,59868
674.297,74.2065,59784
674.106,70.0014,59799
673.915,65.7939,59827
673.724,61.5841,59877
673.533,57.3718,59835
673.341,53.1571,59789
673.15,48.9401,59859
672.959,44.7206,59792
672.768,40.4988,59785
672.577,36.2746,59776
672.386,32.0479,60116
672.195,27.8189,60159
672.003,23.5874,60032
671.812,19.3536,60064
671.621,15.1173,60036
671.43,10.8786,60035
671.239,6.63751,60499
671.048,2.39399,64014
670.857,-1.85194,964561
670.666,-6.10029,63394
670.474,-10.3511,61845
670.283,-14.6043,61571
670.092,-18.8599,62969
669.901,-23.1179,60540
669.71,-27.3784,60218
669.519,-31.6413,60072
669.328,-35.9067,60060
669.136,-40.1745,60051
668.945,-44.4447,60105
668.754,-48.7174,60075
668.563,-52.9925,60015
668.372,-57.27,60029
668.181,-61.55,60027
667.99,-65.8325,60068
667.798,-70.1174,59989
667.607,-74.4048,59993
667.416,-78.6946,60033
667.225,-82.9868,60005
667.034,-87.2816,60061
666.843,-91.5788,59961
666.652,-95.8784,60002
666.46,-100.181,60034
666.269,-104.485,60013
666.078,-108.792,60042
665.887,-113.102,60000
665.696,-117.414,60059
665.505,-121.728,60035
665.314,-126.045,59963
665.122,-130.365,60059
664.931,-134.687,59940
664.74,-139.011,60127
664.549,-143.338,60060
664.358,-147.667,60012
664.167,-151.999,60049
663.976,-156.334,59906
678.014,155.501,59789
677.823,151.342,59736
677.632,147.181,59863
677.44,143.017,59819
677.249,138.851,59886
677.058,134.682,59841
676.867,130.511,59785
676.676,126.338,59865
676.485,122.162,59833
676.294,117.984,59881
676.102,113.804,59859
675.911,109.621,59798
675.72,105.436,59813
675.529,101.249,59817
675.338,97.0592,59846
675.147,92.8671,59862
674.956,88.6725,59847
674.764,84.4756,59924
674.573,80.2764,59867
674.382,76.0747,59874
674.191,71.8707,59842
674,67.6642,59787
673.809,63.4554,59776
673.618,59.2442,59819
673.426,55.0306,59822
673.235,50.8146,59785
673.044,46.5963,59905
672.853,42.3755,59797
672.662,38.1523,59821
672.471,33.9267,59814
672.28,29.6987,60167
672.088,25.4684,60131
671.897,21.2356,59936
671.706,17.0004,59919
671.515,12.7628,60044
671.324,8.52274,60261
671.133,4.2803,60890
670.942,0.0354428,2622977
670.75,-4.21183,118462
670.559,-8.46153,61802
670.368,-12.7136,62262
670.177,-16.9682,61364
669.986,-21.2252,61317
669.795,-25.4846,60315
669.604,-29.7464,60193
669.412,-34.0107,60102
669.221,-38.2774,60021
669.03,-42.5465,60093
668.839,-46.8181,60072
668.648,-51.0921,60093
668.457,-55.3686,60017
668.266,-59.6475,60111
668.074,-63.9289,60039
667.883,-68.2127,59992
667.692,-72.499,60007
667.501,-76.7877,60083
667.31,-81.0789,60025
667.119,-85.3725,60060
666.928,-89.6686,59992
666.736,-93.9672,60029
666.545,-98.2682,60020
666.354,-102.572,60085
666.163,-106.878,60024
665.972,-111.186,60007
665.781,-115.497,60061
665.59,-119.81,60032
665.398,-124.126,60028
665.207,-128.445,60007
665.016,-132.765,60060
664.825,-137.089,59986
664.634,-141.415,59964
664.443,-145.743,60031
664.252,-150.074,60059
664.06,-154.407,59995
678.099,157.349,59773
677.908,153.191,59788
677.717,149.03,59797
677.525,144.868,59869
677.334,140.702,59799
677.143,136.535,59845
676.952,132.365,59709
676.761,128.193,59759
676.57,124.018,59724
676.379,119.842,59752
676.187,115.662,59851
675.996,111.481,59780
675.805,107.297,59828
675.614,103.11,59803
675.423,98.9216,59781
675.232,94.7305,59742
675.041,90.5371,59804
674.849,86.3412,59790
674.658,82.143,59805
674.467,77.9424,59800
674.276,73.7394,59840
674.085,69.534,59802
673.894,65.3263,59822
673.703,61.1162,59853
673.511,56.9036,59807
673.32,52.6887,59821
673.129,48.4714,59859
672.938,44.2517,59811
672.747,40.0296,59812
672.556,35.8051,59876
672.365,31.5781,60162
672.173,27.3488,60161
671.982,23.1171,60012
671.791,18.883,59989
671.6,14.6464,59996
671.409,10.4075,60049
671.218,6.16613,60534
671.027,1.92234,355127
670.835,-2.32386,856351
670.644,-6.57248,63012
670.453,-10.8235,61936
670.262,-15.077,61217
670.071,-19.3329,62510
669.88,-23.5912,60532
669.689,-27.852,60209
669.497,-32.1151,60168
669.306,-36.3808,60095
669.115,-40.6488,60058
668.924,-44.9193,60023
668.733,-49.1923,60110
668.542,-53.4676,59988
668.351,-57.7455,59987
668.159,-62.0257,60044
667.968,-66.3085,60055
667.777,-70.5936,59981
667.586,-74.8813,59978
667.395,-79.1714,59991
667.204,-83.4639,60068
667.013,-87.7589,60052
666.821,-92.0564,60071
666.63,-96.3563,60012
666.439,-100.659,59971
666.248,-104.964,60052
666.057,-109.271,60007
665.866,-113.581,60115
665.675,-117.893,60087
665.483,-122.208,60042
665.292,-126.525,60026
665.101,-130.845,60063
664.91,-135.167,59971
664.719,-139.492,59969
664.528,-143.819,60069
664.337,-148.148,60091
664.145,-152.481,60028
663.954,-156.815,60059
677.993,155.039,59801
677.801,150.88,59745
677.61,146.718,59755
677.419,142.554,59843
677.228,138.388,59800
677.037,134.219,59862
676.846,130.048,59802
676.655,125.874,59815
676.463,121.698,59748
676.272,117.52,59745
676.081,113.339,59824
675.89,109.157,59744
675.699,104.971,59782
675.508,100.784,59795
675.317,96.5935,59839
675.125,92.4011,59787
674.934,88.2063,59838
674.743,84.0092,59810
674.552,79.8096,59868
674.361,75.6077,59853
674.17,71.4034,59895
673.979,67.1967,59786
673.787,62.9876,59827
673.596,58.7762,59782
673.405,54.5623,59810
673.214,50.346,59835
673.023,46.1274,59805
672.832,41.9064,59806
672.641,37.6829,59809
672.449,33.4571,59965
672.258,29.2288,60092
672.067,24.9982,60073
671.876,20.7651,60009
671.685,16.5296,59980
671.494,12.2918,59997
671.303,8.05148,60270
671.111,3.80877,61095
670.92,-0.436357,2835322
670.729,-4.6839,75228
670.538,-8.93387,61747
670.347,-13.1863,61865
670.156,-17.4411,61681
669.965,-21.6983,61280
669.774,-25.958,60204
669.582,-30.2201,60105
669.391,-34.4846,60095
669.2,-38.7516,59999
669.009,-43.021,60012
668.818,-47.2929,59967
668.627,-51.5672,60064
668.436,-55.8439,60070
668.244,-60.1231,60055
668.053,-64.4047,60008
667.862,-68.6888,60036
667.671,-72.9754,59997
667.48,-77.2644,60118
667.289,-81.5558,59945
667.098,-85.8497,59880
666.906,-90.1461,60076
666.715,-94.4449,59972
666.524,-98.7462,60085
666.333,-103.05,60026
666.142,-107.356,60048
665.951,-111.665,60133
665.76,-115.976,60063
665.568,-120.29,60026
665.377,-124.606,59918
665.186,-128.925,60065
664.995,-133.246,60061
664.804,-137.569,60046
664.613,-141.895,59918
664.422,-146.224,60006
664.23,-150.555,60001
664.039,-154.888,59989
663.901,-158.02,59988