File: tomke/20240809_Si_on_TiO2/20240809/raw_data/Si_0A_30sec_4acc_60mW_695nm_bg.txt
Wavelength(nm), Raman shift(cm^-1), Intensity(counts)
702.12,661.884,59668
701.929,658.005,60031
701.738,654.125,60037
701.547,650.242,59991
701.355,646.357,60026
701.164,642.47,59978
700.973,638.582,60033
700.782,634.69,59938
700.591,630.797,59971
700.4,626.902,59936
700.209,623.004,60071
700.017,619.105,60006
699.826,615.203,59959
699.635,611.299,60039
699.444,607.393,60058
699.253,603.485,60003
699.062,599.575,59976
698.871,595.662,60030
698.679,591.748,59929
698.488,587.831,60042
698.297,583.912,59964
698.106,579.991,60053
697.915,576.068,59922
697.724,572.143,59988
697.533,568.216,59957
697.341,564.286,60003
697.15,560.354,60016
696.959,556.42,59970
696.768,552.484,59978
696.577,548.546,59974
696.386,544.606,60082
696.195,540.663,59952
696.003,536.718,59889
695.812,532.772,60032
695.621,528.823,59937
695.43,524.871,60016
695.239,520.918,59945
695.048,516.962,59993
694.857,513.005,60005
694.666,509.045,59950
694.474,505.083,59946
694.283,501.118,59952
694.092,497.152,59986
693.901,493.183,59983
693.71,489.212,59934
693.519,485.239,59937
693.328,481.264,60063
693.136,477.287,59960
692.945,473.307,60042
692.754,469.326,59986
692.563,465.342,60059
692.372,461.355,59923
692.181,457.367,59977
691.99,453.376,60051
691.798,449.384,59985
691.607,445.389,59975
691.416,441.391,59962
691.225,437.392,60003
691.034,433.39,59962
690.843,429.386,59998
690.652,425.38,59986
690.46,421.372,60003
690.269,417.362,60000
690.078,413.349,59999
689.887,409.334,59951
689.696,405.317,59961
689.505,401.297,59970
689.314,397.276,60007
689.122,393.252,59927
688.931,389.226,59950
688.74,385.197,59997
688.549,381.167,59950
688.358,377.134,59989
688.167,373.099,59980
687.976,369.062,60036
702.014,659.729,59939
701.823,655.85,60000
701.632,651.968,59875
701.44,648.084,60063
701.249,644.198,59920
701.058,640.31,59924
700.867,636.42,60035
700.676,632.528,60065
700.485,628.633,59992
700.294,624.737,60047
700.102,620.838,59986
699.911,616.937,59963
699.72,613.035,59937
699.529,609.129,60043
699.338,605.222,59957
699.147,601.313,60020
698.956,597.402,60004
698.764,593.488,60012
698.573,589.572,59925
698.382,585.654,59964
698.191,581.734,59980
698,577.812,60014
697.809,573.888,60010
697.618,569.961,60016
697.426,566.033,59988
697.235,562.102,60006
697.044,558.169,59955
696.853,554.234,60007
696.662,550.297,60007
696.471,546.357,60012
696.28,542.416,59985
696.088,538.472,60037
695.897,534.526,59952
695.706,530.578,60077
695.515,526.628,60019
695.324,522.675,60009
695.133,518.721,60016
694.942,514.764,59929
694.75,510.805,60052
694.559,506.844,59980
694.368,502.881,60023
694.177,498.915,60130
693.986,494.947,59934
693.795,490.978,59974
693.604,487.006,59874
693.412,483.031,60029
693.221,479.055,59922
693.03,475.076,60066
692.839,471.095,60024
692.648,467.112,62668
692.457,463.127,59994
692.266,459.14,60000
692.074,455.15,60002
691.883,451.158,59955
691.692,447.164,59951
691.501,443.168,59924
691.31,439.17,59948
691.119,435.169,59913
690.928,431.166,60032
690.736,427.161,59943
690.545,423.154,60062
690.354,419.144,60028
690.163,415.133,60011
689.972,411.119,60005
689.781,407.102,59916
689.59,403.084,60002
689.398,399.063,60046
689.207,395.041,59999
689.016,391.015,60027
688.825,386.988,59934
688.634,382.958,59987
688.443,378.927,60006
688.252,374.893,59883
688.06,370.856,60052
702.099,661.453,59929
701.908,657.574,60019
701.717,653.693,59962
701.525,649.811,59995
701.334,645.926,59970
701.143,642.038,60050
700.952,638.149,60048
700.761,634.258,60051
700.57,630.364,59974
700.379,626.469,59981
700.187,622.571,60089
699.996,618.671,60025
699.805,614.769,60005
699.614,610.865,59976
699.423,606.959,59981
699.232,603.051,60049
699.041,599.14,59986
698.849,595.228,59975
698.658,591.313,59999
698.467,587.396,59880
698.276,583.477,59917
698.085,579.556,60045
697.894,575.632,60030
697.703,571.707,59993
697.511,567.779,60008
697.32,563.849,59969
697.129,559.917,59955
696.938,555.983,60052
696.747,552.047,59985
696.556,548.108,60021
696.365,544.168,60019
696.173,540.225,60043
695.982,536.28,59925
695.791,532.333,59959
695.6,528.384,59944
695.409,524.432,59997
695.218,520.479,60021
695.027,516.523,59971
694.835,512.565,59953
694.644,508.605,59991
694.453,504.642,60004
694.262,500.678,59981
694.071,496.711,59950
693.88,492.742,59980
693.689,488.771,59946
693.497,484.798,59952
693.306,480.822,59999
693.115,476.845,59955
692.924,472.865,59933
692.733,468.883,59994
692.542,464.899,59960
692.351,460.912,60033
692.159,456.924,59972
691.968,452.933,59997
691.777,448.94,60074
691.586,444.945,59975
691.395,440.947,60002
691.204,436.947,59951
691.013,432.946,59925
690.821,428.941,60002
690.63,424.935,59996
690.439,420.927,60061
690.248,416.916,59982
690.057,412.903,60002
689.866,408.888,59970
689.675,404.87,60019
689.483,400.851,59977
689.292,396.829,60020
689.101,392.805,60006
688.91,388.778,59905
688.719,384.75,59962
688.528,380.719,60048
688.337,376.686,59951
688.145,372.651,59977
687.954,368.613,60042
701.993,659.298,59964
701.801,655.418,59969
701.61,651.537,60028
701.419,647.652,59953
701.228,643.766,59964
701.037,639.878,60006
700.846,635.988,59980
700.655,632.095,59948
700.463,628.201,60031
700.272,624.304,59839
700.081,620.405,60015
699.89,616.504,59989
699.699,612.601,59940
699.508,608.695,59956
699.317,604.788,60022
699.125,600.878,59963
698.934,596.967,59923
698.743,593.053,59919
698.552,589.137,59943
698.361,585.219,59993
698.17,581.299,59968
697.979,577.376,59993
697.787,573.452,60036
697.596,569.525,60055
697.405,565.596,59988
697.214,561.665,60007
697.023,557.732,59977
696.832,553.797,59983
696.641,549.859,60007
696.449,545.919,59970
696.258,541.978,60036
696.067,538.034,59924
695.876,534.087,59992
695.685,530.139,59978
695.494,526.189,59957
695.303,522.236,60055
695.111,518.281,59964
694.92,514.324,59933
694.729,510.365,59949
694.538,506.404,59970
694.347,502.44,59980
694.156,498.474,60002
693.965,494.506,60000
693.774,490.536,60089
693.582,486.564,59964
693.391,482.59,59961
693.2,478.613,59962
693.009,474.634,60012
692.818,470.653,59904
692.627,466.67,59930
692.436,462.684,59985
692.244,458.697,59985
692.053,454.707,59948
691.862,450.715,59916
691.671,446.72,59974
691.48,442.724,59966
691.289,438.725,59972
691.098,434.724,60046
690.906,430.721,60019
690.715,426.716,59906
690.524,422.708,59924
690.333,418.699,59960
690.142,414.687,59928
689.951,410.672,60026
689.76,406.656,59943
689.568,402.637,60005
689.377,398.617,60030
689.186,394.593,60045
688.995,390.568,59959
688.804,386.54,59971
688.613,382.511,59918
688.422,378.479,59965
688.23,374.444,59996
688.039,370.408,60012
687.901,367.491,60006