File: tomke/20240809_Si_on_TiO2/20240809/raw_data/Si_50A_30sec_4acc_60mW_695nm.txt
Wavelength(nm), Raman shift(cm^-1), Intensity(counts)
702.12,661.884,359477
701.929,658.005,361190
701.738,654.125,359415
701.547,650.242,360528
701.355,646.357,360723
701.164,642.47,360525
700.973,638.582,360160
700.782,634.69,360687
700.591,630.797,359646
700.4,626.902,358337
700.209,623.004,359096
700.017,619.105,358724
699.826,615.203,358363
699.635,611.299,356986
699.444,607.393,356224
699.253,603.485,357117
699.062,599.575,356207
698.871,595.662,355550
698.679,591.748,355509
698.488,587.831,355987
698.297,583.912,356510
698.106,579.991,354091
697.915,576.068,356260
697.724,572.143,354995
697.533,568.216,353559
697.341,564.286,355079
697.15,560.354,353158
696.959,556.42,354386
696.768,552.484,352907
696.577,548.546,353828
696.386,544.606,352937
696.195,540.663,351305
696.003,536.718,352148
695.812,532.772,350518
695.621,528.823,351362
695.43,524.871,350996
695.239,520.918,350491
695.048,516.962,349922
694.857,513.005,349795
694.666,509.045,350654
694.474,505.083,350541
694.283,501.118,348700
694.092,497.152,348289
693.901,493.183,348352
693.71,489.212,348651
693.519,485.239,347669
693.328,481.264,347315
693.136,477.287,347310
692.945,473.307,347177
692.754,469.326,346283
692.563,465.342,345245
692.372,461.355,346454
692.181,457.367,345981
691.99,453.376,344668
691.798,449.384,344583
691.607,445.389,343673
691.416,441.391,344064
691.225,437.392,345371
691.034,433.39,344262
690.843,429.386,342982
690.652,425.38,342324
690.46,421.372,342004
690.269,417.362,343310
690.078,413.349,341945
689.887,409.334,341185
689.696,405.317,342973
689.505,401.297,340861
689.314,397.276,341125
689.122,393.252,341032
688.931,389.226,340222
688.74,385.197,339530
688.549,381.167,337621
688.358,377.134,336029
688.167,373.099,333302
687.976,369.062,331366
702.014,659.729,354510
701.823,655.85,354748
701.632,651.968,353647
701.44,648.084,355030
701.249,644.198,354733
701.058,640.31,354750
700.867,636.42,354116
700.676,632.528,353510
700.485,628.633,354029
700.294,624.737,352826
700.102,620.838,352731
699.911,616.937,351876
699.72,613.035,352625
699.529,609.129,351613
699.338,605.222,350438
699.147,601.313,351235
698.956,597.402,349934
698.764,593.488,350608
698.573,589.572,349246
698.382,585.654,350089
698.191,581.734,349613
698,577.812,349900
697.809,573.888,348913
697.618,569.961,349429
697.426,566.033,348230
697.235,562.102,348592
697.044,558.169,347736
696.853,554.234,348676
696.662,550.297,347345
696.471,546.357,346292
696.28,542.416,346875
696.088,538.472,345464
695.897,534.526,346474
695.706,530.578,346881
695.515,526.628,345083
695.324,522.675,344737
695.133,518.721,345570
694.942,514.764,344033
694.75,510.805,344824
694.559,506.844,344583
694.368,502.881,344661
694.177,498.915,343386
693.986,494.947,342789
693.795,490.978,343196
693.604,487.006,342920
693.412,483.031,342835
693.221,479.055,340954
693.03,475.076,342229
692.839,471.095,341413
692.648,467.112,341246
692.457,463.127,341422
692.266,459.14,340396
692.074,455.15,339476
691.883,451.158,340437
691.692,447.164,339631
691.501,443.168,337799
691.31,439.17,338297
691.119,435.169,338391
690.928,431.166,338120
690.736,427.161,338853
690.545,423.154,337725
690.354,419.144,337645
690.163,415.133,336621
689.972,411.119,336407
689.781,407.102,334676
689.59,403.084,335660
689.398,399.063,334557
689.207,395.041,336093
689.016,391.015,334915
688.825,386.988,334351
688.634,382.958,332910
688.443,378.927,331445
688.252,374.893,328931
688.06,370.856,326381
702.099,661.453,500344
701.908,657.574,500033
701.717,653.693,501179
701.525,649.811,501154
701.334,645.926,499607
701.143,642.038,498954
700.952,638.149,498751
700.761,634.258,499213
700.57,630.364,498520
700.379,626.469,498561
700.187,622.571,496435
699.996,618.671,498129
699.805,614.769,496546
699.614,610.865,496794
699.423,606.959,495791
699.232,603.051,495104
699.041,599.14,496039
698.849,595.228,494870
698.658,591.313,494103
698.467,587.396,495130
698.276,583.477,496252
698.085,579.556,490676
697.894,575.632,494890
697.703,571.707,494025
697.511,567.779,491574
697.32,563.849,491756
697.129,559.917,494056
696.938,555.983,491979
696.747,552.047,489728
696.556,548.108,490795
696.365,544.168,490071
696.173,540.225,488106
695.982,536.28,490501
695.791,532.333,487922
695.6,528.384,488326
695.409,524.432,487613
695.218,520.479,488130
695.027,516.523,487140
694.835,512.565,485573
694.644,508.605,486991
694.453,504.642,487139
694.262,500.678,485208
694.071,496.711,486356
693.88,492.742,485695
693.689,488.771,484800
693.497,484.798,485606
693.306,480.822,485151
693.115,476.845,483925
692.924,472.865,482762
692.733,468.883,482206
692.542,464.899,483216
692.351,460.912,482714
692.159,456.924,481281
691.968,452.933,481889
691.777,448.94,480618
691.586,444.945,479022
691.395,440.947,480550
691.204,436.947,479408
691.013,432.946,480118
690.821,428.941,477077
690.63,424.935,478714
690.439,420.927,477021
690.248,416.916,476565
690.057,412.903,476132
689.866,408.888,476169
689.675,404.87,475331
689.483,400.851,475697
689.292,396.829,474540
689.101,392.805,473388
688.91,388.778,474772
688.719,384.75,472199
688.528,380.719,472039
688.337,376.686,466403
688.145,372.651,463128
687.954,368.613,459078
701.993,659.298,459379
701.801,655.418,461845
701.61,651.537,458408
701.419,647.652,461016
701.228,643.766,461086
701.037,639.878,459849
700.846,635.988,459437
700.655,632.095,460485
700.463,628.201,457884
700.272,624.304,458282
700.081,620.405,458743
699.89,616.504,457815
699.699,612.601,458649
699.508,608.695,457367
699.317,604.788,453456
699.125,600.878,455752
698.934,596.967,456014
698.743,593.053,456037
698.552,589.137,454816
698.361,585.219,453691
698.17,581.299,454265
697.979,577.376,453080
697.787,573.452,454932
697.596,569.525,453268
697.405,565.596,453764
697.214,561.665,453152
697.023,557.732,450970
696.832,553.797,451549
696.641,549.859,451238
696.449,545.919,450867
696.258,541.978,450129
696.067,538.034,450570
695.876,534.087,448725
695.685,530.139,450965
695.494,526.189,449093
695.303,522.236,449002
695.111,518.281,449310
694.92,514.324,447668
694.729,510.365,448141
694.538,506.404,447134
694.347,502.44,447658
694.156,498.474,447976
693.965,494.506,447029
693.774,490.536,446201
693.582,486.564,445950
693.391,482.59,447235
693.2,478.613,446124
693.009,474.634,444667
692.818,470.653,445197
692.627,466.67,443196
692.436,462.684,443965
692.244,458.697,442824
692.053,454.707,441799
691.862,450.715,441720
691.671,446.72,441654
691.48,442.724,442476
691.289,438.725,441789
691.098,434.724,440700
690.906,430.721,441882
690.715,426.716,439865
690.524,422.708,438955
690.333,418.699,439273
690.142,414.687,440857
689.951,410.672,438160
689.76,406.656,437009
689.568,402.637,438363
689.377,398.617,435771
689.186,394.593,435613
688.995,390.568,435348
688.804,386.54,434681
688.613,382.511,434553
688.422,378.479,431985
688.23,374.444,427681
688.039,370.408,424264
687.901,367.491,421224