File: tomke/20240809_Si_on_TiO2/20240809/raw_data/Si_onTiO2_0mA_30mW_30sec_1acc_517nm.txt
Wavelength(nm), Raman shift(cm^-1), Intensity(counts)
525.312,-196.464,59770
525.25,-198.711,60121
525.188,-200.958,59968
525.126,-203.205,59945
525.064,-205.453,60047
525.002,-207.702,60009
524.94,-209.951,60023
524.878,-212.2,60017
524.816,-214.45,60041
524.754,-216.701,59963
524.692,-218.952,59989
524.63,-221.204,59926
524.568,-223.456,59912
524.506,-225.709,60004
524.444,-227.962,60028
524.382,-230.216,59966
524.32,-232.471,59922
524.258,-234.726,60015
524.196,-236.981,59982
524.134,-239.237,59954
524.072,-241.494,59966
524.01,-243.751,60020
523.948,-246.008,59976
523.886,-248.266,59949
523.824,-250.525,59985
523.762,-252.784,60038
523.7,-255.044,60042
523.638,-257.304,60012
523.576,-259.565,60070
523.514,-261.827,59991
523.452,-264.088,60013
523.39,-266.351,60107
523.329,-268.614,60065
523.267,-270.877,60011
523.205,-273.141,60069
523.143,-275.406,60046
523.081,-277.671,60153
523.019,-279.937,60112
522.957,-282.203,60201
522.895,-284.469,60156
522.833,-286.737,60312
522.771,-289.005,60145
522.709,-291.273,60276
522.647,-293.542,60231
522.585,-295.811,60274
522.523,-298.081,60250
522.461,-300.352,60361
522.399,-302.623,60290
522.337,-304.894,60267
522.275,-307.166,60297
522.213,-309.439,60372
522.151,-311.712,60247
522.089,-313.986,60253
522.027,-316.26,60197
521.965,-318.535,60288
521.903,-320.81,60234
521.841,-323.086,60142
521.779,-325.362,60187
521.717,-327.639,60236
521.655,-329.917,60149
521.593,-332.195,60163
521.531,-334.473,60206
521.469,-336.753,60198
521.407,-339.032,60200
521.345,-341.312,60130
521.283,-343.593,60124
521.221,-345.874,60098
521.159,-348.156,60157
521.097,-350.439,60092
521.035,-352.722,60072
520.973,-355.005,60148
520.911,-357.289,60101
520.849,-359.574,60155
520.787,-361.859,60184
520.725,-364.144,60197
520.663,-366.43,60081
520.601,-368.717,60050
520.539,-371.004,60122
520.477,-373.292,60095
520.415,-375.581,60092
520.353,-377.87,60105
520.291,-380.159,60204
520.229,-382.449,60133
520.167,-384.74,60123
520.105,-387.031,60065
520.043,-389.322,60029
519.981,-391.614,60057
519.919,-393.907,60051
519.857,-396.2,60096
519.795,-398.494,60046
519.733,-400.789,60144
519.671,-403.084,60062
519.61,-405.379,60035
519.548,-407.675,60053
519.486,-409.972,60192
519.424,-412.269,60042
519.362,-414.566,60090
519.3,-416.865,60078
519.238,-419.163,60059
519.176,-421.463,60070
519.114,-423.762,60038
519.052,-426.063,60115
518.99,-428.364,60080
518.928,-430.665,60102
518.866,-432.967,60059
518.804,-435.27,60137
518.742,-437.573,60088
518.68,-439.877,60035
518.618,-442.181,59958
518.556,-444.486,60090
518.494,-446.791,60029
518.432,-449.097,60006
518.37,-451.404,60052
518.308,-453.711,60066
518.246,-456.018,59947
518.184,-458.326,60023
518.122,-460.635,60025
518.06,-462.944,59994
517.998,-465.254,60045
517.936,-467.564,60095
517.874,-469.875,59995
517.812,-472.186,59959
517.75,-474.498,59943
517.688,-476.811,60016
517.626,-479.124,60081
517.564,-481.438,60020
517.502,-483.752,60108
517.44,-486.067,60148
517.378,-488.382,60087
517.316,-490.698,60064
517.254,-493.014,60073
517.192,-495.331,60024
517.13,-497.649,60103
517.068,-499.967,60057
517.006,-502.285,60140
516.944,-504.605,60114
516.882,-506.924,60136
516.82,-509.245,60245
516.758,-511.565,60426
516.696,-513.887,60874
516.634,-516.209,62188
516.572,-518.531,66394
516.51,-520.854,68005
516.448,-523.178,65529
516.386,-525.502,62620
516.324,-527.827,61165
516.262,-530.152,60505
516.2,-532.478,60251
516.138,-534.805,60209
516.076,-537.132,60154
516.014,-539.459,60169
515.952,-541.787,60159
515.89,-544.116,60102
515.829,-546.445,60041
515.767,-548.775,60100
515.705,-551.105,60031
515.643,-553.436,59978
515.581,-555.768,60011
515.519,-558.1,60060
515.457,-560.432,60107
515.395,-562.766,60029
515.333,-565.099,60001
515.271,-567.434,59966
515.209,-569.768,60007
515.147,-572.104,59975
515.085,-574.44,60023
515.023,-576.776,60005
514.961,-579.113,60021
514.899,-581.451,60045
514.837,-583.789,60069
514.775,-586.128,60046
514.713,-588.467,60013
514.651,-590.807,60003
514.589,-593.148,60019
514.527,-595.489,60070
514.465,-597.83,60019
514.403,-600.173,60048
514.341,-602.515,59944
514.279,-604.859,59990
514.217,-607.202,60016
514.155,-609.547,60028
514.093,-611.892,59950
514.031,-614.237,60012
513.969,-616.584,59993
513.907,-618.93,60102
513.845,-621.277,60062
513.783,-623.625,60127
513.721,-625.974,60047
513.659,-628.323,59955
513.597,-630.672,59993
513.535,-633.022,59979
513.473,-635.373,59963
513.411,-637.724,60051
513.349,-640.076,59953
513.287,-642.428,59956
513.225,-644.781,60025
513.163,-647.135,60019
513.101,-649.489,60038
513.039,-651.843,60005
512.977,-654.199,59973
512.915,-656.554,60062
512.853,-658.911,60083
512.791,-661.268,60018
512.729,-663.625,59975
512.667,-665.983,59979
512.605,-668.342,60044
512.543,-670.701,60072
512.481,-673.061,59946
512.419,-675.421,60058
512.357,-677.782,59997
512.295,-680.143,59983
512.233,-682.505,60069
512.171,-684.868,60047
512.11,-687.231,60045
512.048,-689.595,60021
511.986,-691.959,60069
511.924,-694.324,60005
511.862,-696.69,59922
511.8,-699.056,59981
511.738,-701.422,59954
511.676,-703.789,59983
511.614,-706.157,59989
511.552,-708.526,60024
511.49,-710.894,59973
511.428,-713.264,60003
511.366,-715.634,59996
511.304,-718.005,59964
511.242,-720.376,59972
511.18,-722.748,59971
511.118,-725.12,59990
511.056,-727.493,59978
510.994,-729.867,60023
510.932,-732.241,59946
510.87,-734.615,60069
510.808,-736.991,59991
510.746,-739.366,60108
510.684,-741.743,60038
510.622,-744.12,60115
510.56,-746.497,60049
510.498,-748.875,59968
510.436,-751.254,59991
510.374,-753.633,59981
510.312,-756.013,60018
510.25,-758.394,60106
510.188,-760.775,59987
510.126,-763.156,60059
510.064,-765.538,60040
510.002,-767.921,60022
509.94,-770.305,59995
509.878,-772.688,60023
509.816,-775.073,60049
509.754,-777.458,60030
509.692,-779.844,60013
509.63,-782.23,60002
509.568,-784.617,59982
509.506,-787.004,59997
509.444,-789.392,60058
509.382,-791.781,60010
509.32,-794.17,59980
509.258,-796.559,59975
509.196,-798.95,60087
509.134,-801.341,60035
509.072,-803.732,60017
509.01,-806.124,59960
508.948,-808.517,59936
508.886,-810.91,59953
508.824,-813.304,59987
508.762,-815.698,59936
508.713,-817.614,59994