File: tomke/20240809_Si_on_TiO2/20240809/raw_data/Si_onTiO2_40mA_30mW_30sec_5acc_517nm.txt
Wavelength(nm), Raman shift(cm^-1), Intensity(counts)
525.364,-194.586,62656
525.077,-204.986,62896
524.79,-215.398,62878
524.503,-225.821,63036
524.216,-236.256,62951
523.929,-246.702,63176
523.642,-257.159,63288
523.356,-267.628,64340
523.069,-278.109,67030
522.782,-288.6,68663
522.495,-299.104,69065
522.208,-309.619,68353
521.921,-320.145,68292
521.634,-330.684,68121
521.347,-341.233,67469
521.06,-351.795,67516
520.773,-362.368,67361
520.486,-372.952,67108
520.2,-383.548,66866
519.913,-394.156,66685
519.626,-404.776,66615
519.339,-415.408,66427
519.052,-426.051,66063
518.765,-436.706,65810
518.478,-447.373,65512
518.191,-458.051,65664
517.904,-468.742,65556
517.617,-479.444,65779
517.331,-490.158,67078
517.044,-500.884,74973
516.757,-511.622,68584
516.47,-522.372,65581
516.183,-533.134,64917
515.896,-543.907,64793
515.609,-554.693,64639
515.322,-565.491,64463
515.035,-576.301,64413
514.748,-587.123,64579
514.462,-597.957,64533
514.175,-608.803,64402
513.888,-619.661,64239
513.601,-630.531,64197
513.314,-641.413,64014
513.027,-652.308,63882
512.74,-663.215,64068
512.453,-674.134,64068
512.166,-685.065,63844
511.879,-696.008,63524
511.593,-706.964,63578
511.306,-717.932,63499
511.019,-728.913,63518
510.732,-739.905,63499
510.445,-750.91,63434
510.158,-761.928,63335
509.871,-772.958,63244
509.584,-784,63227
509.297,-795.055,62991
509.01,-806.122,63195
508.723,-817.201,63106
525.152,-202.272,63038
524.865,-212.681,63087
524.578,-223.101,63088
524.291,-233.532,63062
524.004,-243.976,63187
523.717,-254.43,63250
523.43,-264.896,63663
523.143,-275.373,66238
522.857,-285.862,68490
522.57,-296.363,68959
522.283,-306.875,68935
521.996,-317.398,68435
521.709,-327.933,68266
521.422,-338.48,67821
521.135,-349.038,67522
520.848,-359.608,67548
520.561,-370.19,67020
520.274,-380.783,66834
519.988,-391.388,66975
519.701,-402.005,66913
519.414,-412.633,66503
519.127,-423.273,66377
518.84,-433.925,65939
518.553,-444.589,65634
518.266,-455.264,65718
517.979,-465.952,65721
517.692,-476.651,65798
517.405,-487.362,66596
517.119,-498.085,72301
516.832,-508.82,70870
516.545,-519.566,65922
516.258,-530.325,65086
515.971,-541.096,64855
515.684,-551.878,64720
515.397,-562.673,64733
515.11,-573.48,64466
514.823,-584.298,64578
514.536,-595.129,64454
514.249,-605.972,64417
513.963,-616.827,64393
513.676,-627.694,64296
513.389,-638.573,64449
513.102,-649.465,64016
512.815,-660.368,63969
512.528,-671.284,63924
512.241,-682.212,63734
511.954,-693.152,63639
511.667,-704.105,63699
511.38,-715.07,63756
511.094,-726.047,63577
510.807,-737.036,63505
510.52,-748.038,63594
510.233,-759.052,63537
509.946,-770.079,63257
509.659,-781.118,63224
509.372,-792.17,63150
509.085,-803.233,63150
508.798,-814.31,63201
525.227,-199.558,62906
524.94,-209.964,62851
524.653,-220.381,62956
524.366,-230.81,62910
524.079,-241.25,63023
523.792,-251.702,63129
523.505,-262.165,66579
523.218,-272.639,65375
522.931,-283.125,67920
522.644,-293.622,68779
522.358,-304.131,68674
522.071,-314.652,68371
521.784,-325.184,68168
521.497,-335.728,67861
521.21,-346.283,67582
520.923,-356.85,67316
520.636,-367.428,67079
520.349,-378.019,66825
520.062,-388.62,66630
519.775,-399.234,66603
519.489,-409.859,66306
519.202,-420.496,66068
518.915,-431.145,65844
518.628,-441.806,65629
518.341,-452.478,65461
518.054,-463.163,65552
517.767,-473.859,65591
517.48,-484.567,66272
517.193,-495.286,69565
516.906,-506.018,73706
516.62,-516.762,66385
516.333,-527.517,65216
516.046,-538.285,64807
515.759,-549.064,64488
515.472,-559.856,64438
515.185,-570.659,64438
514.898,-581.475,64293
514.611,-592.303,64643
514.324,-603.142,64441
514.037,-613.994,64327
513.751,-624.858,64201
513.464,-635.734,64200
513.177,-646.622,64152
512.89,-657.523,64116
512.603,-668.435,64009
512.316,-679.36,63690
512.029,-690.297,63635
511.742,-701.247,63604
511.455,-712.208,63547
511.168,-723.182,63500
510.881,-734.168,63465
510.595,-745.167,63228
510.308,-756.178,63277
510.021,-767.201,63244
509.734,-778.237,63231
509.447,-789.285,63078
509.16,-800.346,63202
508.873,-811.419,62899
525.301,-196.846,62822
525.015,-207.249,62788
524.728,-217.663,63158
524.441,-228.088,63089
524.154,-238.526,63084
523.867,-248.974,63191
523.58,-259.434,63339
523.293,-269.905,65118
523.006,-280.388,67731
522.719,-290.883,69139
522.432,-301.389,69114
522.146,-311.906,68694
521.859,-322.435,68384
521.572,-332.976,68166
521.285,-343.528,67687
520.998,-354.092,67647
520.711,-364.668,67561
520.424,-375.255,67311
520.137,-385.854,67049
519.85,-396.464,66912
519.563,-407.086,66585
519.277,-417.72,66482
518.99,-428.366,66154
518.703,-439.024,66036
518.416,-449.693,65862
518.129,-460.374,65599
517.842,-471.067,65789
517.555,-481.772,66128
517.268,-492.489,68035
516.981,-503.217,75595
516.694,-513.958,67623
516.407,-524.71,65462
516.121,-535.475,65125
515.834,-546.251,64970
515.547,-557.039,64820
515.26,-567.84,64602
514.973,-578.652,64580
514.686,-589.477,64617
514.399,-600.313,64725
514.112,-611.162,64501
513.825,-622.023,64353
513.538,-632.896,64368
513.252,-643.781,64126
512.965,-654.678,64048
512.678,-665.587,64117
512.391,-676.509,63908
512.104,-687.443,63849
511.817,-698.389,63682
511.53,-709.347,63699
511.243,-720.318,63511
510.956,-731.301,63546
510.669,-742.297,63632
510.383,-753.304,63543
510.096,-764.325,63406
509.809,-775.357,63469
509.522,-786.402,63268
509.235,-797.459,63287
508.948,-808.529,63101
508.661,-819.612,63117
525.089,-204.534,62819
524.802,-214.945,62803
524.516,-225.368,62941
524.229,-235.802,63019
523.942,-246.247,63182
523.655,-256.704,63220
523.368,-267.173,64426
523.081,-277.653,66953
522.794,-288.144,68807
522.507,-298.647,68877
522.22,-309.161,68435
521.933,-319.687,68132
521.647,-330.225,67963
521.36,-340.774,67786
521.073,-351.335,67614
520.786,-361.908,67412
520.499,-372.492,67247
520.212,-383.088,66842
519.925,-393.695,66773
519.638,-404.314,66634
519.351,-414.945,66466
519.064,-425.588,66132
518.778,-436.242,65946
518.491,-446.909,65383
518.204,-457.587,65604
517.917,-468.277,65565
517.63,-478.978,65941
517.343,-489.692,66893
517.056,-500.417,74531
516.769,-511.155,68863
516.482,-521.904,65680
516.195,-532.665,65035
515.909,-543.439,64761
515.622,-554.224,64733
515.335,-565.021,64419
515.048,-575.831,64505
514.761,-586.652,64486
514.474,-597.485,64462
514.187,-608.331,64380
513.9,-619.188,64421
513.613,-630.058,64234
513.326,-640.94,64054
513.04,-651.834,64088
512.753,-662.74,63885
512.466,-673.659,63861
512.179,-684.589,63999
511.892,-695.532,63608
511.605,-706.488,63546
511.318,-717.455,63458
511.031,-728.435,63527
510.744,-739.427,63440
510.457,-750.432,63351
510.17,-761.448,63358
509.884,-772.478,63361
509.597,-783.52,63334
509.31,-794.574,63048
509.023,-805.64,63114
508.736,-816.719,63043
508.661,-819.612,62921