File: tomke/20240809_Si_on_TiO2/20240809/raw_data/Si_onTiO2_50mA_30mW_30sec_5acc_545nm_bg.txt
Wavelength(nm), Raman shift(cm^-1), Intensity(counts)
553.364,768.549,78775
553.077,759.175,79086
552.79,749.791,79010
552.503,740.397,78880
552.216,730.994,78499
551.929,721.58,78949
551.642,712.157,78483
551.356,702.724,78535
551.069,693.282,78548
550.782,683.829,78674
550.495,674.367,78603
550.208,664.894,78297
549.921,655.412,78261
549.634,645.92,78064
549.347,636.418,77818
549.06,626.906,78071
548.773,617.385,78111
548.486,607.853,77835
548.2,598.311,77471
547.913,588.759,76799
547.626,579.197,76643
547.339,569.626,76283
547.052,560.044,75988
546.765,550.452,75505
546.478,540.85,75543
546.191,531.238,75305
545.904,521.616,74910
545.617,511.983,74722
545.331,502.341,74531
545.044,492.688,74605
544.757,483.026,74560
544.47,473.353,74629
544.183,463.67,74240
543.896,453.976,74387
543.609,444.273,73991
543.322,434.559,73687
543.035,424.835,73503
542.748,415.1,73790
542.462,405.356,73769
542.175,395.601,73307
541.888,385.836,73337
541.601,376.06,72925
541.314,366.274,72712
541.027,356.478,72883
540.74,346.671,72747
540.453,336.854,72206
540.166,327.026,71823
539.879,317.188,71519
539.593,307.339,71715
539.306,297.48,72676
539.019,287.611,70382
538.732,277.731,70126
538.445,267.84,67892
538.158,257.939,62730
537.871,248.028,61144
537.584,238.105,60927
537.297,228.172,60806
537.01,218.229,60758
536.723,208.275,60880
553.152,761.621,79526
552.865,752.24,78859
552.578,742.849,79084
552.291,733.448,79267
552.004,724.037,78785
551.717,714.616,78823
551.43,705.186,79027
551.143,695.746,79132
550.857,686.296,78976
550.57,676.836,78717
550.283,667.366,78622
549.996,657.887,78762
549.709,648.397,78486
549.422,638.898,78461
549.135,629.389,78762
548.848,619.869,78432
548.561,610.34,78339
548.274,600.801,77606
547.988,591.252,77352
547.701,581.693,77142
547.414,572.124,76745
547.127,562.544,76606
546.84,552.955,76289
546.553,543.356,76045
546.266,533.746,75657
545.979,524.127,75350
545.692,514.497,75091
545.405,504.857,74866
545.119,495.207,75033
544.832,485.547,74639
544.545,475.877,74731
544.258,466.197,74799
543.971,456.506,74700
543.684,446.805,74241
543.397,437.094,74200
543.11,427.373,73730
542.823,417.641,73899
542.536,407.899,73988
542.249,398.147,73820
541.963,388.384,73621
541.676,378.611,73411
541.389,368.828,73314
541.102,359.034,73165
540.815,349.23,72910
540.528,339.416,72889
540.241,329.591,72028
539.954,319.755,71975
539.667,309.91,71956
539.38,300.053,71722
539.094,290.186,70824
538.807,280.309,70191
538.52,270.421,69303
538.233,260.523,63977
537.946,250.614,61398
537.659,240.695,60931
537.372,230.765,60862
537.085,220.824,60727
536.798,210.873,60816
553.227,764.067,79151
552.94,754.688,79094
552.653,745.299,78830
552.366,735.901,78716
552.079,726.493,78428
551.792,717.075,78845
551.505,707.647,78781
551.218,698.21,78399
550.931,688.762,78665
550.644,679.305,78372
550.358,669.838,78080
550.071,660.361,78343
549.784,650.874,78329
549.497,641.377,78006
549.21,631.87,77973
548.923,622.354,78118
548.636,612.827,77796
548.349,603.291,77722
548.062,593.744,77575
547.775,584.187,76369
547.489,574.621,76631
547.202,565.044,76080
546.915,555.458,76220
546.628,545.861,75751
546.341,536.254,75542
546.054,526.637,75054
545.767,517.01,74720
545.48,507.373,74698
545.193,497.726,74532
544.906,488.068,74399
544.62,478.401,74448
544.333,468.723,74266
544.046,459.035,74115
543.759,449.337,73945
543.472,439.628,73630
543.185,429.91,73675
542.898,420.181,73609
542.611,410.441,73861
542.324,400.692,73577
542.037,390.932,73214
541.751,381.162,73168
541.464,371.381,72873
541.177,361.59,72831
540.89,351.789,72770
540.603,341.977,72359
540.316,332.155,72070
540.029,322.322,71835
539.742,312.479,71918
539.455,302.625,71517
539.168,292.761,71042
538.881,282.887,70191
538.595,273.002,69901
538.308,263.106,65405
538.021,253.2,61749
537.734,243.283,60983
537.447,233.356,60840
537.16,223.418,60828
536.873,213.47,60852
553.301,766.512,79467
553.015,757.136,79530
552.728,747.75,79474
552.441,738.354,79020
552.154,728.948,78766
551.867,719.533,79173
551.58,710.107,79006
551.293,700.672,78969
551.006,691.228,79098
550.719,681.773,78617
550.432,672.308,78671
550.146,662.834,78397
549.859,653.35,78543
549.572,643.855,78388
549.285,634.351,78665
548.998,624.837,78483
548.711,615.313,78402
548.424,605.779,78103
548.137,596.235,77727
547.85,586.681,77135
547.563,577.117,77051
547.277,567.543,76731
546.99,557.959,76325
546.703,548.365,76228
546.416,538.761,75739
546.129,529.147,75466
545.842,519.523,75434
545.555,509.888,74773
545.268,500.243,74808
544.981,490.589,74618
544.694,480.924,74450
544.407,471.249,74515
544.121,461.563,74823
543.834,451.868,74200
543.547,442.162,74119
543.26,432.446,74143
542.973,422.72,73813
542.686,412.983,74086
542.399,403.236,74101
542.112,393.479,73632
541.825,383.711,73678
541.538,373.933,73419
541.252,364.145,73388
540.965,354.347,73318
540.678,344.537,72726
540.391,334.718,72290
540.104,324.888,71835
539.817,315.048,72066
539.53,305.197,72114
539.243,295.336,71626
538.956,285.464,70164
538.669,275.582,70220
538.383,265.689,67060
538.096,255.785,62184
537.809,245.871,61191
537.522,235.947,60867
537.235,226.012,60911
536.948,216.066,60749
536.661,206.11,60826
553.089,759.583,79777
552.802,750.199,79395
552.516,740.806,79582
552.229,731.403,79159
551.942,721.99,79398
551.655,712.567,79271
551.368,703.135,79013
551.081,693.692,79122
550.794,684.24,78996
550.507,674.778,78711
550.22,665.306,78737
549.933,655.825,78749
549.647,646.333,78552
549.36,636.832,78455
549.073,627.32,78592
548.786,617.799,78303
548.499,608.267,78480
548.212,598.726,77701
547.925,589.175,77506
547.638,579.613,76952
547.351,570.042,77028
547.064,560.461,76887
546.778,550.869,76435
546.491,541.268,75959
546.204,531.656,75616
545.917,522.034,75579
545.63,512.402,75343
545.343,502.76,74915
545.056,493.108,74779
544.769,483.446,74764
544.482,473.774,74913
544.195,464.091,74849
543.909,454.398,74124
543.622,444.695,73947
543.335,434.981,74214
543.048,425.258,73986
542.761,415.524,74130
542.474,405.78,74330
542.187,396.025,73815
541.9,386.26,73711
541.613,376.485,73496
541.326,366.7,73338
541.04,356.904,73212
540.753,347.097,73201
540.466,337.281,72660
540.179,327.453,72335
539.892,317.616,72023
539.605,307.768,72041
539.318,297.909,71539
539.031,288.04,70718
538.744,278.161,70327
538.457,268.271,68529
538.17,258.37,63049
537.884,248.459,61290
537.597,238.537,60977
537.31,228.605,61004
537.023,218.662,60844
536.736,208.708,60820
536.661,206.11,60804