File: tomke/20240809_Si_on_TiO2/20240809/raw_data/Si_onTiO2_50mA_30mW_30sec_5acc_545nm.txt
Wavelength(nm), Raman shift(cm^-1), Intensity(counts)
553.364,768.549,82469
553.077,759.175,82769
552.79,749.791,83225
552.503,740.397,82931
552.216,730.994,82909
551.929,721.58,82848
551.642,712.157,82987
551.356,702.724,82642
551.069,693.282,82295
550.782,683.829,82567
550.495,674.367,82475
550.208,664.894,81982
549.921,655.412,82173
549.634,645.92,81984
549.347,636.418,81933
549.06,626.906,82070
548.773,617.385,81942
548.486,607.853,81702
548.2,598.311,81649
547.913,588.759,80911
547.626,579.197,80309
547.339,569.626,80112
547.052,560.044,79725
546.765,550.452,79205
546.478,540.85,79379
546.191,531.238,79211
545.904,521.616,79526
545.617,511.983,82016
545.331,502.341,90722
545.044,492.688,82055
544.757,483.026,79402
544.47,473.353,78651
544.183,463.67,78161
543.896,453.976,77648
543.609,444.273,77144
543.322,434.559,77270
543.035,424.835,77362
542.748,415.1,77266
542.462,405.356,77137
542.175,395.601,77313
541.888,385.836,76944
541.601,376.06,76549
541.314,366.274,76201
541.027,356.478,76478
540.74,346.671,76569
540.453,336.854,76140
540.166,327.026,75546
539.879,317.188,75114
539.593,307.339,75742
539.306,297.48,75682
539.019,287.611,74402
538.732,277.731,73888
538.445,267.84,70763
538.158,257.939,63889
537.871,248.028,61400
537.584,238.105,61146
537.297,228.172,60913
537.01,218.229,60940
536.723,208.275,61007
553.152,761.621,83896
552.865,752.24,83551
552.578,742.849,83493
552.291,733.448,83605
552.004,724.037,83395
551.717,714.616,83206
551.43,705.186,83261
551.143,695.746,83488
550.857,686.296,82996
550.57,676.836,83261
550.283,667.366,83041
549.996,657.887,82571
549.709,648.397,82580
549.422,638.898,82760
549.135,629.389,82757
548.848,619.869,82718
548.561,610.34,82322
548.274,600.801,81897
547.988,591.252,81485
547.701,581.693,81159
547.414,572.124,80909
547.127,562.544,80652
546.84,552.955,80010
546.553,543.356,80000
546.266,533.746,79771
545.979,524.127,80261
545.692,514.497,81366
545.405,504.857,89809
545.119,495.207,84516
544.832,485.547,80189
544.545,475.877,79334
544.258,466.197,78670
543.971,456.506,78213
543.684,446.805,77995
543.397,437.094,78080
543.11,427.373,77557
542.823,417.641,77922
542.536,407.899,77893
542.249,398.147,77721
541.963,388.384,77301
541.676,378.611,77169
541.389,368.828,76971
541.102,359.034,76974
540.815,349.23,76921
540.528,339.416,76189
540.241,329.591,76290
539.954,319.755,75959
539.667,309.91,76227
539.38,300.053,76077
539.094,290.186,75353
538.807,280.309,74082
538.52,270.421,72663
538.233,260.523,65355
537.946,250.614,61731
537.659,240.695,61172
537.372,230.765,60929
537.085,220.824,60918
536.798,210.873,61013
553.227,764.067,83667
552.94,754.688,83596
552.653,745.299,83698
552.366,735.901,83171
552.079,726.493,83253
551.792,717.075,82987
551.505,707.647,83013
551.218,698.21,83150
550.931,688.762,83328
550.644,679.305,83063
550.358,669.838,82643
550.071,660.361,82759
549.784,650.874,82661
549.497,641.377,82647
549.21,631.87,83016
548.923,622.354,82546
548.636,612.827,82975
548.349,603.291,82200
548.062,593.744,81637
547.775,584.187,81435
547.489,574.621,80585
547.202,565.044,80373
546.915,555.458,80490
546.628,545.861,79915
546.341,536.254,79952
546.054,526.637,80101
545.767,517.01,80455
545.48,507.373,87060
545.193,497.726,87122
544.906,488.068,80705
544.62,478.401,79737
544.333,468.723,79041
544.046,459.035,78339
543.759,449.337,78040
543.472,439.628,78023
543.185,429.91,77756
542.898,420.181,77782
542.611,410.441,77826
542.324,400.692,77466
542.037,390.932,77476
541.751,381.162,77351
541.464,371.381,76779
541.177,361.59,77011
540.89,351.789,77058
540.603,341.977,76621
540.316,332.155,76143
540.029,322.322,75774
539.742,312.479,76004
539.455,302.625,76358
539.168,292.761,75510
538.881,282.887,74347
538.595,273.002,73609
538.308,263.106,67181
538.021,253.2,62295
537.734,243.283,61146
537.447,233.356,61053
537.16,223.418,60976
536.873,213.47,60983
553.301,766.512,84084
553.015,757.136,84152
552.728,747.75,83845
552.441,738.354,83652
552.154,728.948,83902
551.867,719.533,83345
551.58,710.107,83499
551.293,700.672,83614
551.006,691.228,83362
550.719,681.773,83536
550.432,672.308,83307
550.146,662.834,83149
549.859,653.35,83107
549.572,643.855,82960
549.285,634.351,83100
548.998,624.837,83424
548.711,615.313,82910
548.424,605.779,82574
548.137,596.235,81894
547.85,586.681,81599
547.563,577.117,81076
547.277,567.543,80915
546.99,557.959,80564
546.703,548.365,80230
546.416,538.761,80367
546.129,529.147,80043
545.842,519.523,80491
545.555,509.888,84202
545.268,500.243,90471
544.981,490.589,82003
544.694,480.924,79935
544.407,471.249,79186
544.121,461.563,79020
543.834,451.868,78404
543.547,442.162,78011
543.26,432.446,78114
542.973,422.72,78221
542.686,412.983,77963
542.399,403.236,78060
542.112,393.479,77685
541.825,383.711,77697
541.538,373.933,77304
541.252,364.145,77603
540.965,354.347,77322
540.678,344.537,77236
540.391,334.718,76398
540.104,324.888,75870
539.817,315.048,76189
539.53,305.197,76436
539.243,295.336,76034
538.956,285.464,74665
538.669,275.582,74284
538.383,265.689,69463
538.096,255.785,62967
537.809,245.871,61214
537.522,235.947,61005
537.235,226.012,61060
536.948,216.066,60925
536.661,206.11,60927
553.089,759.583,84919
552.802,750.199,84948
552.516,740.806,84473
552.229,731.403,84529
551.942,721.99,84404
551.655,712.567,84430
551.368,703.135,84190
551.081,693.692,84423
550.794,684.24,84288
550.507,674.778,84110
550.22,665.306,83784
549.933,655.825,83674
549.647,646.333,83540
549.36,636.832,83819
549.073,627.32,83607
548.786,617.799,83659
548.499,608.267,83133
548.212,598.726,82939
547.925,589.175,82093
547.638,579.613,81925
547.351,570.042,81475
547.064,560.461,81210
546.778,550.869,81058
546.491,541.268,80564
546.204,531.656,80732
545.917,522.034,80680
545.63,512.402,82997
545.343,502.76,92235
545.056,493.108,83811
544.769,483.446,80658
544.482,473.774,79531
544.195,464.091,79693
543.909,454.398,79069
543.622,444.695,78799
543.335,434.981,78457
543.048,425.258,78604
542.761,415.524,78697
542.474,405.78,78506
542.187,396.025,78051
541.9,386.26,78236
541.613,376.485,77920
541.326,366.7,77662
541.04,356.904,77619
540.753,347.097,77501
540.466,337.281,76978
540.179,327.453,76697
539.892,317.616,76646
539.605,307.768,76917
539.318,297.909,76850
539.031,288.04,75709
538.744,278.161,74695
538.457,268.271,71817
538.17,258.37,64027
537.884,248.459,61526
537.597,238.537,61065
537.31,228.605,60969
537.023,218.662,60934
536.736,208.708,60963
536.661,206.11,60966