File: tomke/20240809_Si_on_TiO2/20240809/raw_data/Si_onTiO2_70mA_30mW_30sec_5acc_517nm_bg.txt
Wavelength(nm), Raman shift(cm^-1), Intensity(counts)
525.364,-194.586,71342
525.077,-204.986,71941
524.79,-215.398,72394
524.503,-225.821,72759
524.216,-236.256,72663
523.929,-246.702,73318
523.642,-257.159,74471
523.356,-267.628,81845
523.069,-278.109,101660
522.782,-288.6,113846
522.495,-299.104,115991
522.208,-309.619,115856
521.921,-320.145,115715
521.634,-330.684,114793
521.347,-341.233,114497
521.06,-351.795,113084
520.773,-362.368,112084
520.486,-372.952,111341
520.2,-383.548,110309
519.913,-394.156,109405
519.626,-404.776,108996
519.339,-415.408,107973
519.052,-426.051,106645
518.765,-436.706,105051
518.478,-447.373,104146
518.191,-458.051,103166
517.904,-468.742,103111
517.617,-479.444,102424
517.331,-490.158,101418
517.044,-500.884,101217
516.757,-511.622,100698
516.47,-522.372,100527
516.183,-533.134,100332
515.896,-543.907,100307
515.609,-554.693,99860
515.322,-565.491,98989
515.035,-576.301,98324
514.748,-587.123,98638
514.462,-597.957,97727
514.175,-608.803,97660
513.888,-619.661,96980
513.601,-630.531,96139
513.314,-641.413,95161
513.027,-652.308,95238
512.74,-663.215,94796
512.453,-674.134,94094
512.166,-685.065,92791
511.879,-696.008,92717
511.593,-706.964,91644
511.306,-717.932,91264
511.019,-728.913,90674
510.732,-739.905,90528
510.445,-750.91,89656
510.158,-761.928,88548
509.871,-772.958,87964
509.584,-784,87561
509.297,-795.055,86672
509.01,-806.122,86258
508.723,-817.201,85853
525.152,-202.272,72048
524.865,-212.681,72557
524.578,-223.101,72497
524.291,-233.532,72930
524.004,-243.976,73172
523.717,-254.43,73890
523.43,-264.896,78817
523.143,-275.373,97081
522.857,-285.862,113058
522.57,-296.363,117074
522.283,-306.875,117411
521.996,-317.398,116729
521.709,-327.933,115582
521.422,-338.48,115348
521.135,-349.038,114278
520.848,-359.608,113200
520.561,-370.19,112527
520.274,-380.783,111220
519.988,-391.388,110466
519.701,-402.005,109953
519.414,-412.633,109150
519.127,-423.273,107977
518.84,-433.925,106732
518.553,-444.589,105377
518.266,-455.264,104524
517.979,-465.952,103950
517.692,-476.651,103432
517.405,-487.362,102369
517.119,-498.085,102192
516.832,-508.82,101350
516.545,-519.566,101807
516.258,-530.325,100797
515.971,-541.096,100611
515.684,-551.878,100058
515.397,-562.673,99647
515.11,-573.48,99804
514.823,-584.298,99173
514.536,-595.129,98652
514.249,-605.972,98559
513.963,-616.827,97818
513.676,-627.694,97401
513.389,-638.573,96593
513.102,-649.465,96406
512.815,-660.368,95619
512.528,-671.284,94846
512.241,-682.212,94124
511.954,-693.152,93149
511.667,-704.105,92852
511.38,-715.07,92291
511.094,-726.047,91796
510.807,-737.036,90625
510.52,-748.038,90667
510.233,-759.052,89956
509.946,-770.079,88579
509.659,-781.118,88049
509.372,-792.17,87333
509.085,-803.233,86721
508.798,-814.31,86395
525.227,-199.558,72118
524.94,-209.964,72356
524.653,-220.381,72718
524.366,-230.81,72866
524.079,-241.25,73313
523.792,-251.702,73997
523.505,-262.165,77161
523.218,-272.639,91345
522.931,-283.125,111501
522.644,-293.622,117745
522.358,-304.131,118282
522.071,-314.652,117899
521.784,-325.184,117151
521.497,-335.728,116897
521.21,-346.283,115377
520.923,-356.85,114761
520.636,-367.428,113482
520.349,-378.019,112840
520.062,-388.62,112077
519.775,-399.234,110817
519.489,-409.859,109984
519.202,-420.496,108623
518.915,-431.145,107531
518.628,-441.806,106805
518.341,-452.478,105771
518.054,-463.163,104897
517.767,-473.859,104237
517.48,-484.567,103803
517.193,-495.286,103517
516.906,-506.018,103001
516.62,-516.762,102451
516.333,-527.517,104741
516.046,-538.285,102016
515.759,-549.064,101024
515.472,-559.856,100944
515.185,-570.659,100242
514.898,-581.475,100497
514.611,-592.303,100206
514.324,-603.142,99102
514.037,-613.994,98724
513.751,-624.858,98039
513.464,-635.734,97264
513.177,-646.622,97153
512.89,-657.523,96042
512.603,-668.435,95536
512.316,-679.36,94948
512.029,-690.297,94083
511.742,-701.247,93434
511.455,-712.208,92760
511.168,-723.182,92390
510.881,-734.168,91732
510.595,-745.167,91134
510.308,-756.178,90237
510.021,-767.201,89696
509.734,-778.237,88809
509.447,-789.285,88286
509.16,-800.346,87283
508.873,-811.419,87230
525.301,-196.846,72367
525.015,-207.249,72584
524.728,-217.663,73013
524.441,-228.088,73175
524.154,-238.526,73367
523.867,-248.974,73635
523.58,-259.434,75575
523.293,-269.905,86541
523.006,-280.388,107833
522.719,-290.883,117960
522.432,-301.389,118907
522.146,-311.906,119019
521.859,-322.435,117944
521.572,-332.976,117660
521.285,-343.528,117615
520.998,-354.092,115747
520.711,-364.668,114384
520.424,-375.255,113321
520.137,-385.854,112539
519.85,-396.464,112507
519.563,-407.086,111859
519.277,-417.72,109950
518.99,-428.366,109091
518.703,-439.024,107432
518.416,-449.693,107077
518.129,-460.374,106125
517.842,-471.067,105234
517.555,-481.772,104640
517.268,-492.489,103939
516.981,-503.217,103764
516.694,-513.958,103396
516.407,-524.71,102806
516.121,-535.475,102876
515.834,-546.251,101985
515.547,-557.039,101833
515.26,-567.84,101379
514.973,-578.652,100719
514.686,-589.477,100749
514.399,-600.313,99716
514.112,-611.162,99754
513.825,-622.023,98788
513.538,-632.896,98342
513.252,-643.781,97259
512.965,-654.678,97478
512.678,-665.587,96248
512.391,-676.509,95890
512.104,-687.443,94870
511.817,-698.389,94016
511.53,-709.347,93741
511.243,-720.318,93192
510.956,-731.301,92585
510.669,-742.297,91697
510.383,-753.304,90881
510.096,-764.325,90104
509.809,-775.357,89678
509.522,-786.402,89208
509.235,-797.459,88040
508.948,-808.529,87639
508.661,-819.612,86877
525.089,-204.534,72744
524.802,-214.945,72862
524.516,-225.368,73148
524.229,-235.802,73510
523.942,-246.247,73663
523.655,-256.704,75285
523.368,-267.173,82532
523.081,-277.653,104246
522.794,-288.144,117748
522.507,-298.647,120875
522.22,-309.161,120423
521.933,-319.687,119779
521.647,-330.225,118507
521.36,-340.774,118068
521.073,-351.335,117190
520.786,-361.908,116518
520.499,-372.492,114561
520.212,-383.088,113921
519.925,-393.695,113867
519.638,-404.314,112822
519.351,-414.945,111957
519.064,-425.588,110138
518.778,-436.242,109050
518.491,-446.909,107990
518.204,-457.587,107275
517.917,-468.277,106470
517.63,-478.978,105364
517.343,-489.692,105339
517.056,-500.417,104163
516.769,-511.155,104026
516.482,-521.904,103657
516.195,-532.665,103608
515.909,-543.439,103419
515.622,-554.224,103251
515.335,-565.021,102143
515.048,-575.831,101714
514.761,-586.652,101126
514.474,-597.485,100551
514.187,-608.331,100392
513.9,-619.188,100191
513.613,-630.058,99212
513.326,-640.94,98551
513.04,-651.834,98040
512.753,-662.74,97072
512.466,-673.659,96921
512.179,-684.589,95732
511.892,-695.532,95718
511.605,-706.488,94351
511.318,-717.455,94164
511.031,-728.435,93108
510.744,-739.427,92638
510.457,-750.432,91857
510.17,-761.448,91684
509.884,-772.478,90466
509.597,-783.52,89460
509.31,-794.574,89048
509.023,-805.64,88580
508.736,-816.719,87654
508.661,-819.612,87827