File: tomke/20240809_Si_on_TiO2/20240809/raw_data/Si_onTiO2_50mA_30mW_30sec_3acc_517nm_bg.txt
Wavelength(nm), Raman shift(cm^-1), Intensity(counts)
525.364,-194.586,63117
525.189,-200.915,63313
525.015,-207.249,63448
524.84,-213.586,63531
524.665,-219.928,63485
524.491,-226.275,63508
524.316,-232.625,63506
524.141,-238.98,63600
523.967,-245.339,63612
523.792,-251.702,63805
523.617,-258.069,63975
523.443,-264.441,64216
523.268,-270.817,64871
523.094,-277.197,66360
522.919,-283.581,67286
522.744,-289.97,67944
522.57,-296.363,68108
522.395,-302.76,67705
522.22,-309.161,67843
522.046,-315.567,67768
521.871,-321.977,67585
521.696,-328.392,67430
521.522,-334.81,67436
521.347,-341.233,67630
521.173,-347.66,67264
520.998,-354.092,67102
520.823,-360.528,67114
520.649,-366.968,66864
520.474,-373.413,66777
520.299,-379.861,66573
520.125,-386.315,66646
519.95,-392.772,66597
519.775,-399.234,66390
519.601,-405.7,66428
519.426,-412.171,66086
519.252,-418.646,65952
519.077,-425.125,65801
518.902,-431.609,65695
518.728,-438.096,65628
518.553,-444.589,65428
518.378,-451.086,65125
518.204,-457.587,65251
518.029,-464.092,64815
517.854,-470.602,64869
517.68,-477.116,64793
517.505,-483.635,64843
517.331,-490.158,64742
517.156,-496.685,64823
516.981,-503.217,64731
516.807,-509.754,64587
516.632,-516.294,64432
516.457,-522.839,64517
516.283,-529.389,64505
516.108,-535.943,64399
515.933,-542.501,64435
515.759,-549.064,64437
515.584,-555.632,64381
515.41,-562.203,64288
515.235,-568.78,64487
515.06,-575.36,64237
514.886,-581.945,64385
514.711,-588.535,64160
514.536,-595.129,64320
514.362,-601.728,64291
514.187,-608.331,64185
514.012,-614.938,64134
513.838,-621.55,64190
513.663,-628.167,64006
513.489,-634.788,63956
513.314,-641.413,63881
513.139,-648.043,63893
512.965,-654.678,63845
512.79,-661.317,63994
512.615,-667.961,63717
512.441,-674.609,63729
512.266,-681.261,63560
512.091,-687.919,63522
511.917,-694.58,63731
511.742,-701.247,63470
511.568,-707.917,63578
511.393,-714.593,63415
511.218,-721.273,63443
511.044,-727.957,63499
510.869,-734.646,63414
510.694,-741.34,63346
510.52,-748.038,63398
510.345,-754.741,63233
510.17,-761.448,63216
509.996,-768.161,63217
509.821,-774.877,63042
509.647,-781.598,63222
509.472,-788.324,63125
509.297,-795.055,62921
509.123,-801.79,62903
508.948,-808.529,62874
508.773,-815.274,62955
525.314,-196.394,63292
525.139,-202.724,63375
524.965,-209.059,63433
524.79,-215.398,63414
524.615,-221.741,63237
524.441,-228.088,63480
524.266,-234.44,63649
524.091,-240.796,63411
523.917,-247.156,63674
523.742,-253.52,63590
523.568,-259.889,63786
523.393,-266.262,64177
523.218,-272.639,65140
523.044,-279.02,66412
522.869,-285.406,67311
522.694,-291.796,67762
522.52,-298.19,67811
522.345,-304.589,67907
522.17,-310.991,67758
521.996,-317.398,67458
521.821,-323.81,67481
521.647,-330.225,67468
521.472,-336.645,67161
521.297,-343.069,67131
521.123,-349.498,67019
520.948,-355.93,66820
520.773,-362.368,66742
520.599,-368.809,66758
520.424,-375.255,66749
520.249,-381.705,66636
520.075,-388.159,66520
519.9,-394.618,66298
519.726,-401.081,66124
519.551,-407.548,66040
519.376,-414.02,65897
519.202,-420.496,65864
519.027,-426.977,65564
518.852,-433.462,65431
518.678,-439.951,65380
518.503,-446.445,65215
518.328,-452.943,65058
518.154,-459.445,64964
517.979,-465.952,64831
517.805,-472.463,64641
517.63,-478.978,64658
517.455,-485.498,64568
517.281,-492.023,64660
517.106,-498.551,64527
516.931,-505.084,64493
516.757,-511.622,64539
516.582,-518.164,64370
516.407,-524.71,64458
516.233,-531.261,64458
516.058,-537.816,64403
515.884,-544.376,64219
515.709,-550.94,64329
515.534,-557.509,63981
515.36,-564.082,64333
515.185,-570.659,64207
515.01,-577.241,64247
514.836,-583.828,64113
514.661,-590.419,64216
514.486,-597.014,64237
514.312,-603.614,64135
514.137,-610.218,63980
513.963,-616.827,63875
513.788,-623.44,64061
513.613,-630.058,63837
513.439,-636.68,63944
513.264,-643.307,63656
513.089,-649.939,63678
512.915,-656.574,63776
512.74,-663.215,63681
512.565,-669.86,63598
512.391,-676.509,63676
512.216,-683.163,63461
512.042,-689.821,63583
511.867,-696.485,63622
511.692,-703.152,63358
511.518,-709.824,63344
511.343,-716.501,63471
511.168,-723.182,63318
510.994,-729.868,63506
510.819,-736.558,63258
510.644,-743.253,63184
510.47,-749.953,63155
510.295,-756.657,63221
510.121,-763.366,63150
509.946,-770.079,63114
509.771,-776.797,63023
509.597,-783.52,62943
509.422,-790.247,62832
509.247,-796.978,62855
509.073,-803.715,62908
508.898,-810.456,62760
508.723,-817.201,62963
525.264,-198.202,63303
525.089,-204.534,63400
524.915,-210.87,63306
524.74,-217.21,63439
524.565,-223.554,63508
524.391,-229.903,63405
524.216,-236.256,63373
524.042,-242.613,63553
523.867,-248.974,63566
523.692,-255.34,63668
523.518,-261.709,63700
523.343,-268.084,64508
523.168,-274.462,65375
522.994,-280.844,66651
522.819,-287.231,67227
522.644,-293.622,67007
522.47,-300.018,67615
522.295,-306.417,67402
522.121,-312.821,67335
521.946,-319.23,67255
521.771,-325.642,67101
521.597,-332.059,67006
521.422,-338.48,66932
521.247,-344.905,67030
521.073,-351.335,66989
520.898,-357.769,66616
520.723,-364.208,66574
520.549,-370.65,66360
520.374,-377.097,66298
520.2,-383.548,66042
520.025,-390.004,66166
519.85,-396.464,66014
519.676,-402.928,65860
519.501,-409.397,65769
519.326,-415.87,65650
519.152,-422.348,65547
518.977,-428.829,65246
518.802,-435.315,65036
518.628,-441.806,65202
518.453,-448.301,64830
518.279,-454.8,64986
518.104,-461.304,64785
517.929,-467.812,64664
517.755,-474.324,64440
517.58,-480.841,64417
517.405,-487.362,64303
517.231,-493.887,64417
517.056,-500.417,64217
516.881,-506.952,64261
516.707,-513.491,64356
516.532,-520.034,64258
516.358,-526.582,64366
516.183,-533.134,64148
516.008,-539.69,64234
515.834,-546.251,64216
515.659,-552.817,64078
515.484,-559.386,63969
515.31,-565.961,64042
515.135,-572.539,64060
514.96,-579.123,64005
514.786,-585.71,64074
514.611,-592.303,63915
514.437,-598.899,63977
514.262,-605.5,63904
514.087,-612.106,64134
513.913,-618.716,63825
513.738,-625.331,63866
513.563,-631.95,63751
513.389,-638.573,63653
513.214,-645.201,63688
513.04,-651.834,63717
512.865,-658.471,63770
512.69,-665.113,63534
512.516,-671.759,63411
512.341,-678.41,63569
512.166,-685.065,63440
511.992,-691.725,63320
511.817,-698.389,63224
511.642,-705.058,63225
511.468,-711.731,63190
511.293,-718.409,63181
511.119,-725.092,63126
510.944,-731.779,63239
510.769,-738.471,63124
510.595,-745.167,63029
510.42,-751.868,63151
510.245,-758.573,63045
510.071,-765.283,62964
509.896,-771.998,62904
509.721,-778.717,63014
509.547,-785.441,62923
509.372,-792.17,62786
509.198,-798.903,62845
509.023,-805.64,62772
508.848,-812.383,62732
508.674,-819.13,62681
508.661,-819.612,62723