File: tomke/20240809_Si_on_TiO2/20240809/raw_data/Si_onTiO2_0mA_30mW_30sec_4acc_545nm_02.txt
Wavelength(nm), Raman shift(cm^-1), Intensity(counts)
553.364,768.549,59879
553.139,761.214,60076
552.915,753.872,60168
552.69,746.525,60107
552.466,739.171,60156
552.241,731.812,60109
552.017,724.446,60125
551.792,717.075,60176
551.568,709.697,60090
551.343,702.314,60134
551.119,694.925,60116
550.894,687.529,60243
550.669,680.128,60292
550.445,672.72,60315
550.22,665.306,60233
549.996,657.887,60309
549.771,650.461,60266
549.547,643.029,60307
549.322,635.592,60360
549.098,628.148,60355
548.873,620.698,60322
548.649,613.242,60356
548.424,605.779,60308
548.2,598.311,60207
547.975,590.837,60154
547.751,583.356,60197
547.526,575.869,60191
547.301,568.376,60215
547.077,560.877,60243
546.852,553.372,60326
546.628,545.861,60480
546.403,538.343,60977
546.179,530.82,62551
545.954,523.29,107883
545.73,515.754,70368
545.505,508.211,61543
545.281,500.663,60803
545.056,493.108,60498
544.832,485.547,60361
544.607,477.98,60294
544.383,470.407,60248
544.158,462.827,60212
543.933,455.241,60246
543.709,447.649,60363
543.484,440.051,60374
543.26,432.446,60482
543.035,424.835,60448
542.811,417.218,60346
542.586,409.594,60358
542.362,401.964,60425
542.137,394.328,60505
541.913,386.685,60357
541.688,379.036,60365
541.464,371.381,60461
541.239,363.719,60495
541.015,356.051,60479
540.79,348.377,60516
540.565,340.696,60539
540.341,333.009,60633
540.116,325.316,60827
539.892,317.616,60790
539.667,309.91,60928
539.443,302.197,61325
539.218,294.478,60789
538.994,286.752,60699
538.769,279.02,60708
538.545,271.282,60809
538.32,263.537,60569
538.096,255.785,60140
537.871,248.028,60107
537.647,240.263,60082
537.422,232.492,59990
537.198,224.715,59943
536.973,216.931,60020
536.748,209.141,60017
553.239,764.475,60169
553.015,757.136,60104
552.79,749.791,60136
552.565,742.44,60114
552.341,735.083,60145
552.116,727.721,60088
551.892,720.352,60176
551.667,712.977,60202
551.443,705.596,60144
551.218,698.21,60182
550.994,690.817,60240
550.769,683.418,60215
550.545,676.013,60202
550.32,668.602,60324
550.096,661.185,60190
549.871,653.762,60327
549.647,646.333,60341
549.422,638.898,60334
549.198,631.457,60402
548.973,624.009,60421
548.748,616.556,60364
548.524,609.097,60300
548.299,601.631,60278
548.075,594.159,60284
547.85,586.681,60206
547.626,579.197,60164
547.401,571.707,60176
547.177,564.211,60181
546.952,556.709,60437
546.728,549.2,60486
546.503,541.685,60819
546.279,534.164,61476
546.054,526.637,69563
545.83,519.104,95865
545.605,511.564,62648
545.38,504.019,60848
545.156,496.467,60685
544.931,488.909,60448
544.707,481.344,60380
544.482,473.774,60318
544.258,466.197,60248
544.033,458.614,60174
543.809,451.024,60255
543.584,443.428,60276
543.36,435.827,60426
543.135,428.218,60427
542.911,420.604,60477
542.686,412.983,60442
542.462,405.356,60407
542.237,397.722,60433
542.012,390.083,60417
541.788,382.437,60519
541.563,374.784,60326
541.339,367.125,60448
541.114,359.46,60507
540.89,351.789,60433
540.665,344.111,60522
540.441,336.426,60630
540.216,328.736,60705
539.992,321.039,60942
539.767,313.335,60918
539.543,305.625,61024
539.318,297.909,61012
539.094,290.186,60863
538.869,282.457,60804
538.644,274.722,60669
538.42,266.98,60676
538.195,259.231,60317
537.971,251.476,60105
537.746,243.715,60029
537.522,235.947,60011
537.297,228.172,60033
537.073,220.392,60022
536.848,212.604,59982
553.339,767.734,60118
553.114,760.398,60093
552.89,753.056,60057
552.665,745.708,60083
552.441,738.354,60061
552.216,730.994,60125
551.992,723.628,60116
551.767,716.255,60127
551.543,708.877,60129
551.318,701.493,60199
551.094,694.103,60196
550.869,686.707,60188
550.644,679.305,60279
550.42,671.897,60269
550.195,664.482,60295
549.971,657.062,60193
549.746,649.636,60239
549.522,642.203,60339
549.297,634.765,60448
549.073,627.32,60388
548.848,619.869,60396
548.624,612.413,60246
548.399,604.95,60411
548.175,597.481,60224
547.95,590.006,60155
547.726,582.524,60143
547.501,575.037,60195
547.277,567.543,60214
547.052,560.044,60244
546.827,552.538,60416
546.603,545.026,60653
546.378,537.508,60982
546.154,529.983,63204
545.929,522.453,115988
545.705,514.916,67607
545.48,507.373,61391
545.256,499.824,60746
545.031,492.268,60577
544.807,484.707,60430
544.582,477.139,60281
544.358,469.565,60234
544.133,461.985,60228
543.909,454.398,60336
543.684,446.805,60302
543.459,439.206,60314
543.235,431.601,60456
543.01,423.989,60390
542.786,416.371,60381
542.561,408.746,60457
542.337,401.116,60427
542.112,393.479,60426
541.888,385.836,60373
541.663,378.186,60459
541.439,370.53,60346
541.214,362.868,60491
540.99,355.199,60557
540.765,347.524,60538
540.541,339.842,60604
540.316,332.155,60712
540.091,324.46,60956
539.867,316.76,60960
539.642,309.053,60877
539.418,301.339,61018
539.193,293.62,60878
538.969,285.893,60742
538.744,278.161,60749
538.52,270.421,60915
538.295,262.676,60510
538.071,254.924,60099
537.846,247.165,60016
537.622,239.4,59948
537.397,231.629,59973
537.173,223.851,60064
536.948,216.066,60034
536.723,208.275,60071
553.214,763.659,60154
552.99,756.32,60127
552.765,748.974,60156
552.541,741.623,60049
552.316,734.266,60142
552.091,726.902,60134
551.867,719.533,60207
551.642,712.157,60136
551.418,704.776,60174
551.193,697.388,60114
550.969,689.995,60223
550.744,682.595,60184
550.52,675.19,60230
550.295,667.778,60239
550.071,660.361,60328
549.846,652.937,60269
549.622,645.507,60273
549.397,638.072,60419
549.173,630.63,60368
548.948,623.182,60405
548.723,615.728,60418
548.499,608.267,60199
548.274,600.801,60273
548.05,593.329,60296
547.825,585.85,60222
547.601,578.365,60203
547.376,570.875,60135
547.152,563.378,60172
546.927,555.875,60270
546.703,548.365,60498
546.478,540.85,60747
546.254,533.328,61657
546.029,525.8,74716
545.805,518.266,86605
545.58,510.726,62400
545.356,503.18,60907
545.131,495.627,60544
544.906,488.068,60379
544.682,480.503,60299
544.457,472.932,60283
544.233,465.354,60218
544.008,457.771,60244
543.784,450.18,60301
543.559,442.584,60361
543.335,434.981,60398
543.11,427.373,60329
542.886,419.757,60446
542.661,412.136,60377
542.437,404.508,60425
542.212,396.874,60379
541.988,389.233,60455
541.763,381.587,60344
541.538,373.933,60415
541.314,366.274,60460
541.089,358.608,60434
540.865,350.936,60571
540.64,343.257,60550
540.416,335.572,60670
540.191,327.881,60916
539.967,320.183,60934
539.742,312.479,60827
539.518,304.768,61110
539.293,297.051,60956
539.069,289.328,60713
538.844,281.598,60639
538.62,273.862,60760
538.395,266.119,60632
538.17,258.37,60347
537.946,250.614,60117
537.721,242.852,60025
537.497,235.083,59923
537.272,227.308,60003
537.048,219.527,60061
536.823,211.738,60012
536.661,206.11,59977