File: tomke/20240809_Si_on_TiO2/20240809/raw_data/Si_onTiO2_80mA_30mW_30sec_5acc_517nm_new.txt
Wavelength(nm), Raman shift(cm^-1), Intensity(counts)
525.364,-194.586,70484
525.077,-204.986,71201
524.79,-215.398,71200
524.503,-225.821,71599
524.216,-236.256,71662
523.929,-246.702,71774
523.642,-257.159,73109
523.356,-267.628,79883
523.069,-278.109,98778
522.782,-288.6,109254
522.495,-299.104,111048
522.208,-309.619,110563
521.921,-320.145,109590
521.634,-330.684,108903
521.347,-341.233,108191
521.06,-351.795,107198
520.773,-362.368,106491
520.486,-372.952,105342
520.2,-383.548,104570
519.913,-394.156,103914
519.626,-404.776,103304
519.339,-415.408,102230
519.052,-426.051,101307
518.765,-436.706,99751
518.478,-447.373,99416
518.191,-458.051,98959
517.904,-468.742,98178
517.617,-479.444,98411
517.331,-490.158,99817
517.044,-500.884,106509
516.757,-511.622,98325
516.47,-522.372,95941
516.183,-533.134,95983
515.896,-543.907,94833
515.609,-554.693,94603
515.322,-565.491,94137
515.035,-576.301,94154
514.748,-587.123,93872
514.462,-597.957,93562
514.175,-608.803,92800
513.888,-619.661,92254
513.601,-630.531,91713
513.314,-641.413,91332
513.027,-652.308,90427
512.74,-663.215,90318
512.453,-674.134,89886
512.166,-685.065,88917
511.879,-696.008,88477
511.593,-706.964,87942
511.306,-717.932,87790
511.019,-728.913,86899
510.732,-739.905,86895
510.445,-750.91,86127
510.158,-761.928,85293
509.871,-772.958,84819
509.584,-784,84170
509.297,-795.055,83898
509.01,-806.122,83361
508.723,-817.201,82584
525.152,-202.272,69255
524.865,-212.681,69610
524.578,-223.101,69693
524.291,-233.532,69868
524.004,-243.976,70150
523.717,-254.43,70698
523.43,-264.896,73953
523.143,-275.373,86124
522.857,-285.862,97335
522.57,-296.363,99248
522.283,-306.875,99428
521.996,-317.398,98629
521.709,-327.933,97741
521.422,-338.48,97398
521.135,-349.038,96742
520.848,-359.608,95874
520.561,-370.19,95422
520.274,-380.783,94096
519.988,-391.388,94106
519.701,-402.005,93375
519.414,-412.633,93024
519.127,-423.273,91833
518.84,-433.925,90828
518.553,-444.589,90229
518.266,-455.264,89288
517.979,-465.952,88994
517.692,-476.651,88867
517.405,-487.362,90065
517.119,-498.085,95852
516.832,-508.82,90876
516.545,-519.566,87573
516.258,-530.325,87124
515.971,-541.096,86543
515.684,-551.878,86334
515.397,-562.673,86060
515.11,-573.48,85616
514.823,-584.298,85415
514.536,-595.129,85414
514.249,-605.972,84808
513.963,-616.827,84039
513.676,-627.694,84010
513.389,-638.573,83600
513.102,-649.465,83432
512.815,-660.368,82995
512.528,-671.284,82497
512.241,-682.212,82166
511.954,-693.152,81648
511.667,-704.105,81223
511.38,-715.07,80843
511.094,-726.047,80415
510.807,-737.036,80343
510.52,-748.038,79577
510.233,-759.052,78851
509.946,-770.079,78713
509.659,-781.118,78250
509.372,-792.17,77896
509.085,-803.233,77616
508.798,-814.31,76784
525.227,-199.558,68468
524.94,-209.964,68799
524.653,-220.381,69032
524.366,-230.81,69285
524.079,-241.25,69227
523.792,-251.702,69745
523.505,-262.165,71521
523.218,-272.639,80332
522.931,-283.125,92117
522.644,-293.622,96386
522.358,-304.131,95823
522.071,-314.652,95119
521.784,-325.184,94455
521.497,-335.728,94294
521.21,-346.283,93152
520.923,-356.85,92337
520.636,-367.428,92046
520.349,-378.019,90990
520.062,-388.62,90927
519.775,-399.234,90272
519.489,-409.859,90400
519.202,-420.496,88912
518.915,-431.145,88016
518.628,-441.806,87391
518.341,-452.478,86458
518.054,-463.163,86548
517.767,-473.859,86468
517.48,-484.567,86649
517.193,-495.286,91476
516.906,-506.018,90880
516.62,-516.762,85366
516.333,-527.517,84739
516.046,-538.285,84054
515.759,-549.064,83602
515.472,-559.856,83332
515.185,-570.659,82959
514.898,-581.475,82989
514.611,-592.303,82792
514.324,-603.142,82380
514.037,-613.994,82021
513.751,-624.858,81902
513.464,-635.734,81202
513.177,-646.622,80654
512.89,-657.523,80610
512.603,-668.435,80216
512.316,-679.36,79653
512.029,-690.297,79617
511.742,-701.247,78952
511.455,-712.208,78839
511.168,-723.182,78568
510.881,-734.168,78339
510.595,-745.167,77573
510.308,-756.178,77461
510.021,-767.201,77006
509.734,-778.237,76328
509.447,-789.285,76427
509.16,-800.346,76044
508.873,-811.419,75621
525.301,-196.846,68309
525.015,-207.249,68841
524.728,-217.663,68855
524.441,-228.088,69047
524.154,-238.526,69031
523.867,-248.974,69459
523.58,-259.434,70625
523.293,-269.905,76446
523.006,-280.388,89556
522.719,-290.883,95039
522.432,-301.389,95184
522.146,-311.906,94207
521.859,-322.435,93998
521.572,-332.976,93253
521.285,-343.528,92669
520.998,-354.092,92573
520.711,-364.668,91415
520.424,-375.255,90423
520.137,-385.854,90107
519.85,-396.464,89931
519.563,-407.086,89439
519.277,-417.72,88449
518.99,-428.366,87599
518.703,-439.024,86492
518.416,-449.693,86063
518.129,-460.374,86035
517.842,-471.067,85572
517.555,-481.772,85834
517.268,-492.489,88494
516.981,-503.217,92675
516.694,-513.958,85744
516.407,-524.71,83946
516.121,-535.475,83675
515.834,-546.251,83434
515.547,-557.039,82793
515.26,-567.84,82587
514.973,-578.652,82314
514.686,-589.477,82722
514.399,-600.313,81786
514.112,-611.162,81467
513.825,-622.023,81483
513.538,-632.896,81105
513.252,-643.781,80439
512.965,-654.678,79926
512.678,-665.587,80168
512.391,-676.509,79546
512.104,-687.443,79170
511.817,-698.389,78672
511.53,-709.347,78486
511.243,-720.318,78107
510.956,-731.301,77687
510.669,-742.297,77527
510.383,-753.304,77177
510.096,-764.325,76500
509.809,-775.357,76386
509.522,-786.402,76016
509.235,-797.459,75664
508.948,-808.529,75193
508.661,-819.612,74853
525.089,-204.534,68672
524.802,-214.945,68617
524.516,-225.368,68860
524.229,-235.802,68867
523.942,-246.247,69306
523.655,-256.704,70174
523.368,-267.173,74534
523.081,-277.653,85995
522.794,-288.144,94182
522.507,-298.647,95226
522.22,-309.161,94645
521.933,-319.687,94591
521.647,-330.225,93814
521.36,-340.774,93370
521.073,-351.335,92742
520.786,-361.908,91638
520.499,-372.492,90816
520.212,-383.088,90387
519.925,-393.695,90089
519.638,-404.314,89278
519.351,-414.945,88963
519.064,-425.588,87993
518.778,-436.242,86931
518.491,-446.909,86333
518.204,-457.587,86014
517.917,-468.277,85891
517.63,-478.978,85680
517.343,-489.692,87208
517.056,-500.417,94012
516.769,-511.155,86501
516.482,-521.904,84437
516.195,-532.665,83410
515.909,-543.439,83478
515.622,-554.224,82938
515.335,-565.021,82796
515.048,-575.831,82537
514.761,-586.652,82484
514.474,-597.485,81862
514.187,-608.331,82056
513.9,-619.188,81310
513.613,-630.058,81035
513.326,-640.94,80493
513.04,-651.834,80070
512.753,-662.74,79770
512.466,-673.659,79948
512.179,-684.589,78989
511.892,-695.532,78653
511.605,-706.488,78338
511.318,-717.455,78003
511.031,-728.435,78280
510.744,-739.427,77357
510.457,-750.432,76955
510.17,-761.448,76745
509.884,-772.478,76563
509.597,-783.52,75977
509.31,-794.574,75675
509.023,-805.64,75510
508.736,-816.719,75054
508.661,-819.612,75004