File: tomke/20240809_Si_on_TiO2/20240809/raw_data/Si_onTiO2_60mA_30mW_30sec_5acc_545nm.txt
Wavelength(nm), Raman shift(cm^-1), Intensity(counts)
553.364,768.549,96485
553.077,759.175,96885
552.79,749.791,96842
552.503,740.397,95985
552.216,730.994,95809
551.929,721.58,96038
551.642,712.157,96031
551.356,702.724,96100
551.069,693.282,95215
550.782,683.829,95439
550.495,674.367,95509
550.208,664.894,95646
549.921,655.412,94897
549.634,645.92,94980
549.347,636.418,95078
549.06,626.906,94797
548.773,617.385,94999
548.486,607.853,94400
548.2,598.311,93573
547.913,588.759,92982
547.626,579.197,92562
547.339,569.626,91861
547.052,560.044,91687
546.765,550.452,91463
546.478,540.85,91581
546.191,531.238,90922
545.904,521.616,91158
545.617,511.983,93759
545.331,502.341,104017
545.044,492.688,94705
544.757,483.026,90955
544.47,473.353,90225
544.183,463.67,89751
543.896,453.976,89180
543.609,444.273,88564
543.322,434.559,88465
543.035,424.835,88073
542.748,415.1,88329
542.462,405.356,88135
542.175,395.601,87843
541.888,385.836,87292
541.601,376.06,87023
541.314,366.274,86712
541.027,356.478,86889
540.74,346.671,86674
540.453,336.854,85866
540.166,327.026,84868
539.879,317.188,84927
539.593,307.339,85616
539.306,297.48,84991
539.019,287.611,83043
538.732,277.731,82174
538.445,267.84,76768
538.158,257.939,65451
537.871,248.028,61821
537.584,238.105,61325
537.297,228.172,61156
537.01,218.229,61008
536.723,208.275,61057
553.152,761.621,99297
552.865,752.24,99443
552.578,742.849,99083
552.291,733.448,98940
552.004,724.037,98818
551.717,714.616,98852
551.43,705.186,98587
551.143,695.746,99047
550.857,686.296,98079
550.57,676.836,98644
550.283,667.366,97693
549.996,657.887,97406
549.709,648.397,97481
549.422,638.898,97728
549.135,629.389,97685
548.848,619.869,97339
548.561,610.34,97096
548.274,600.801,96826
547.988,591.252,95745
547.701,581.693,94783
547.414,572.124,94226
547.127,562.544,93842
546.84,552.955,93967
546.553,543.356,93947
546.266,533.746,93661
545.979,524.127,93450
545.692,514.497,94405
545.405,504.857,103597
545.119,495.207,98998
544.832,485.547,94010
544.545,475.877,92938
544.258,466.197,92009
543.971,456.506,91520
543.684,446.805,90990
543.397,437.094,90295
543.11,427.373,90492
542.823,417.641,90540
542.536,407.899,90659
542.249,398.147,90394
541.963,388.384,89768
541.676,378.611,89359
541.389,368.828,88729
541.102,359.034,88537
540.815,349.23,88473
540.528,339.416,87644
540.241,329.591,86500
539.954,319.755,86575
539.667,309.91,87315
539.38,300.053,87311
539.094,290.186,85059
538.807,280.309,83912
538.52,270.421,80942
538.233,260.523,68286
537.946,250.614,62256
537.659,240.695,61444
537.372,230.765,61175
537.085,220.824,61146
536.798,210.873,61186
553.227,764.067,100000
552.94,754.688,100177
552.653,745.299,100063
552.366,735.901,99504
552.079,726.493,99253
551.792,717.075,99095
551.505,707.647,98930
551.218,698.21,99462
550.931,688.762,98792
550.644,679.305,98778
550.358,669.838,98467
550.071,660.361,98205
549.784,650.874,98286
549.497,641.377,98048
549.21,631.87,98566
548.923,622.354,98292
548.636,612.827,97587
548.349,603.291,97130
548.062,593.744,96459
547.775,584.187,95934
547.489,574.621,95273
547.202,565.044,94966
546.915,555.458,94845
546.628,545.861,94247
546.341,536.254,94398
546.054,526.637,94020
545.767,517.01,94628
545.48,507.373,101126
545.193,497.726,102670
544.906,488.068,95432
544.62,478.401,93574
544.333,468.723,92775
544.046,459.035,92010
543.759,449.337,91179
543.472,439.628,90563
543.185,429.91,90785
542.898,420.181,91230
542.611,410.441,91107
542.324,400.692,90996
542.037,390.932,90213
541.751,381.162,90217
541.464,371.381,89446
541.177,361.59,89319
540.89,351.789,89251
540.603,341.977,88415
540.316,332.155,87547
540.029,322.322,87499
539.742,312.479,87612
539.455,302.625,87388
539.168,292.761,86458
538.881,282.887,84314
538.595,273.002,83306
538.308,263.106,71536
538.021,253.2,63079
537.734,243.283,61510
537.447,233.356,61232
537.16,223.418,61106
536.873,213.47,61235
553.301,766.512,101471
553.015,757.136,101088
552.728,747.75,101075
552.441,738.354,100759
552.154,728.948,100455
551.867,719.533,100510
551.58,710.107,100212
551.293,700.672,100141
551.006,691.228,100372
550.719,681.773,99913
550.432,672.308,99578
550.146,662.834,99509
549.859,653.35,99394
549.572,643.855,99498
549.285,634.351,99106
548.998,624.837,99503
548.711,615.313,99051
548.424,605.779,98331
548.137,596.235,97633
547.85,586.681,96758
547.563,577.117,96064
547.277,567.543,95695
546.99,557.959,95741
546.703,548.365,95488
546.416,538.761,95250
546.129,529.147,94942
545.842,519.523,95178
545.555,509.888,99102
545.268,500.243,107182
544.981,490.589,97160
544.694,480.924,94615
544.407,471.249,93500
544.121,461.563,93328
543.834,451.868,92293
543.547,442.162,91769
543.26,432.446,91550
542.973,422.72,91510
542.686,412.983,91393
542.399,403.236,92233
542.112,393.479,91067
541.825,383.711,90638
541.538,373.933,90226
541.252,364.145,90583
540.965,354.347,90361
540.678,344.537,89711
540.391,334.718,88513
540.104,324.888,87938
539.817,315.048,87709
539.53,305.197,88333
539.243,295.336,87800
538.956,285.464,84992
538.669,275.582,84846
538.383,265.689,75659
538.096,255.785,64418
537.809,245.871,61747
537.522,235.947,61390
537.235,226.012,61290
536.948,216.066,61197
536.661,206.11,61083
553.089,759.583,102641
552.802,750.199,102506
552.516,740.806,102081
552.229,731.403,102068
551.942,721.99,101810
551.655,712.567,101920
551.368,703.135,101704
551.081,693.692,101445
550.794,684.24,101459
550.507,674.778,101375
550.22,665.306,100972
549.933,655.825,100288
549.647,646.333,100661
549.36,636.832,100413
549.073,627.32,100799
548.786,617.799,100449
548.499,608.267,99654
548.212,598.726,99385
547.925,589.175,99057
547.638,579.613,97796
547.351,570.042,96927
547.064,560.461,97039
546.778,550.869,97152
546.491,541.268,96299
546.204,531.656,96158
545.917,522.034,96230
545.63,512.402,97910
545.343,502.76,108414
545.056,493.108,99929
544.769,483.446,96014
544.482,473.774,94952
544.195,464.091,94798
543.909,454.398,93608
543.622,444.695,92533
543.335,434.981,92484
543.048,425.258,92858
542.761,415.524,92743
542.474,405.78,92518
542.187,396.025,92386
541.9,386.26,91838
541.613,376.485,91310
541.326,366.7,91210
541.04,356.904,91142
540.753,347.097,90805
540.466,337.281,89817
540.179,327.453,88500
539.892,317.616,89315
539.605,307.768,89249
539.318,297.909,88838
539.031,288.04,86508
538.744,278.161,85938
538.457,268.271,79858
538.17,258.37,66514
537.884,248.459,62084
537.597,238.537,61374
537.31,228.605,61290
537.023,218.662,61095
536.736,208.708,61159
536.661,206.11,61059