File: tomke/20240809_Si_on_TiO2/20240809/raw_data/Si_onTiO2_0mA_30mW_30sec_1acc_545nm.txt
Wavelength(nm), Raman shift(cm^-1), Intensity(counts)
553.312,766.856,59884
553.25,764.831,60230
553.188,762.806,60152
553.126,760.78,60048
553.064,758.754,60118
553.002,756.727,60193
552.94,754.7,60111
552.878,752.673,60168
552.816,750.645,60177
552.754,748.616,60098
552.692,746.587,60163
552.63,744.558,60171
552.568,742.528,60132
552.506,740.498,60126
552.444,738.467,60247
552.382,736.436,60087
552.32,734.405,60127
552.258,732.372,60149
552.196,730.34,60177
552.134,728.307,60058
552.072,726.273,60128
552.01,724.24,60182
551.948,722.205,60161
551.886,720.17,60156
551.824,718.135,60139
551.762,716.099,60141
551.7,714.063,60107
551.638,712.026,60060
551.576,709.989,60078
551.514,707.952,60057
551.452,705.914,60215
551.39,703.875,60119
551.329,701.836,60133
551.267,699.797,60137
551.205,697.757,60183
551.143,695.717,60207
551.081,693.676,60246
551.019,691.635,60231
550.957,689.593,60178
550.895,687.551,60194
550.833,685.508,60184
550.771,683.465,60246
550.709,681.422,60241
550.647,679.378,60271
550.585,677.333,60263
550.523,675.288,60230
550.461,673.243,60337
550.399,671.197,60212
550.337,669.151,60288
550.275,667.104,60302
550.213,665.057,60254
550.151,663.009,60277
550.089,660.961,60252
550.027,658.912,60327
549.965,656.863,60299
549.903,654.814,60358
549.841,652.764,60220
549.779,650.713,60298
549.717,648.662,60276
549.655,646.611,60321
549.593,644.559,60260
549.531,642.507,60304
549.469,640.454,60380
549.407,638.401,60388
549.345,636.347,60401
549.283,634.293,60355
549.221,632.238,60410
549.159,630.183,60356
549.097,628.128,60403
549.035,626.072,60497
548.973,624.015,60433
548.911,621.958,60409
548.849,619.901,60489
548.787,617.843,60401
548.725,615.784,60409
548.663,613.726,60289
548.601,611.666,60283
548.539,609.607,60353
548.477,607.546,60316
548.415,605.486,60378
548.353,603.425,60104
548.291,601.363,60180
548.229,599.301,60288
548.167,597.238,60237
548.105,595.175,60224
548.043,593.112,60269
547.981,591.048,60225
547.919,588.984,60218
547.857,586.919,60241
547.795,584.853,60213
547.733,582.788,60203
547.671,580.721,60258
547.61,578.655,60242
547.548,576.587,60165
547.486,574.52,60230
547.424,572.452,60222
547.362,570.383,60236
547.3,568.314,60218
547.238,566.244,60255
547.176,564.174,60278
547.114,562.104,60260
547.052,560.033,60253
546.99,557.962,60307
546.928,555.89,60380
546.866,553.817,60360
546.804,551.744,60412
546.742,549.671,60497
546.68,547.597,60488
546.618,545.523,60574
546.556,543.448,60580
546.494,541.373,60799
546.432,539.298,60915
546.37,537.222,61082
546.308,535.145,61300
546.246,533.068,61724
546.184,530.99,62216
546.122,528.912,63463
546.06,526.834,66060
545.998,524.755,74537
545.936,522.675,102248
545.874,520.596,124156
545.812,518.515,114485
545.75,516.434,89537
545.688,514.353,74256
545.626,512.271,66427
545.564,510.189,63540
545.502,508.106,62368
545.44,506.023,61621
545.378,503.939,61291
545.316,501.855,61033
545.254,499.771,60732
545.192,497.685,60840
545.13,495.6,60664
545.068,493.514,60594
545.006,491.427,60584
544.944,489.34,60631
544.882,487.253,60443
544.82,485.165,60415
544.758,483.076,60366
544.696,480.988,60437
544.634,478.898,60162
544.572,476.808,60379
544.51,474.718,60292
544.448,472.627,60288
544.386,470.536,60173
544.324,468.444,60261
544.262,466.352,60320
544.2,464.259,60411
544.138,462.166,60193
544.076,460.072,60184
544.014,457.978,60225
543.952,455.884,60234
543.89,453.789,60261
543.829,451.693,60214
543.767,449.597,60302
543.705,447.5,60256
543.643,445.403,60363
543.581,443.306,60335
543.519,441.208,60364
543.457,439.11,60375
543.395,437.011,60393
543.333,434.911,60437
543.271,432.811,60427
543.209,430.711,60441
543.147,428.61,60436
543.085,426.509,60439
543.023,424.407,60335
542.961,422.305,60422
542.899,420.202,60357
542.837,418.099,60420
542.775,415.995,60406
542.713,413.891,60413
542.651,411.786,60497
542.589,409.681,60363
542.527,407.575,60405
542.465,405.469,60382
542.403,403.363,60440
542.341,401.256,60391
542.279,399.148,60386
542.217,397.04,60500
542.155,394.931,60543
542.093,392.822,60511
542.031,390.713,60407
541.969,388.603,60447
541.907,386.492,60466
541.845,384.382,60435
541.783,382.27,60411
541.721,380.158,60487
541.659,378.046,60496
541.597,375.933,60420
541.535,373.82,60537
541.473,371.706,60445
541.411,369.591,60480
541.349,367.477,60493
541.287,365.361,60439
541.225,363.246,60508
541.163,361.129,60565
541.101,359.013,60540
541.039,356.895,60454
540.977,354.778,60545
540.915,352.659,60516
540.853,350.541,60542
540.791,348.422,60568
540.729,346.302,60541
540.667,344.182,60530
540.605,342.061,60667
540.543,339.94,60578
540.481,337.818,60628
540.419,335.696,60683
540.357,333.574,60641
540.295,331.451,60599
540.233,329.327,60665
540.171,327.203,60743
540.11,325.079,60778
540.048,322.953,60767
539.986,320.828,69063
539.924,318.702,63260
539.862,316.576,60703
539.8,314.449,60795
539.738,312.321,60901
539.676,310.193,60875
539.614,308.065,61027
539.552,305.936,61115
539.49,303.806,61213
539.428,301.676,61265
539.366,299.546,61241
539.304,297.415,61130
539.242,295.284,60902
539.18,293.152,61015
539.118,291.02,60854
539.056,288.887,60850
538.994,286.753,60874
538.932,284.62,60743
538.87,282.485,60696
538.808,280.351,60774
538.746,278.215,60725
538.684,276.079,60774
538.622,273.943,60855
538.56,271.806,60877
538.498,269.669,60881
538.436,267.531,60738
538.374,265.393,60655
538.312,263.254,60488
538.25,261.115,60359
538.188,258.975,60351
538.126,256.835,60138
538.064,254.694,60144
538.002,252.553,60103
537.94,250.412,60047
537.878,248.269,60033
537.816,246.127,60110
537.754,243.984,59978
537.692,241.84,59996
537.63,239.696,59995
537.568,237.551,59981
537.506,235.406,59999
537.444,233.26,59951
537.382,231.114,59990
537.32,228.967,60037
537.258,226.82,59932
537.196,224.673,60071
537.134,222.525,60049
537.072,220.376,60015
537.01,218.227,60049
536.948,216.077,60067
536.886,213.927,59994
536.824,211.776,59895
536.762,209.625,60044
536.713,207.904,60033