File: tomke/20240809_Si_on_TiO2/20240809/raw_data/Si_onTiO2_0mA_30mW_30sec_3acc_517nm_bg_new.txt
Wavelength(nm), Raman shift(cm^-1), Intensity(counts)
524.12,-239.756,59753
523.971,-245.17,60018
523.823,-250.586,60098
523.674,-256.006,59955
523.525,-261.428,59968
523.377,-266.854,60046
523.228,-272.283,60080
523.079,-277.715,59930
522.931,-283.15,59987
522.782,-288.588,59954
522.633,-294.029,59988
522.485,-299.473,59944
522.336,-304.921,60042
522.187,-310.371,59968
522.039,-315.825,59933
521.89,-321.282,60006
521.741,-326.741,59948
521.593,-332.204,60000
521.444,-337.67,60033
521.295,-343.14,60013
521.147,-348.612,60026
520.998,-354.087,59936
520.849,-359.566,60043
520.701,-365.047,59978
520.552,-370.532,59988
520.403,-376.02,59958
520.255,-381.511,59919
520.106,-387.005,59985
519.957,-392.503,60006
519.809,-398.003,60010
519.66,-403.507,59982
519.511,-409.013,60001
519.363,-414.523,60035
519.214,-420.037,60034
519.065,-425.553,60055
518.917,-431.072,60025
518.768,-436.595,60007
518.619,-442.12,59951
518.471,-447.649,59937
518.322,-453.181,59997
518.173,-458.717,59952
518.025,-464.255,60032
517.876,-469.797,60018
517.727,-475.341,59966
517.579,-480.889,59962
517.43,-486.441,60015
517.281,-491.995,59980
517.133,-497.552,59926
516.984,-503.113,59978
516.835,-508.677,59978
516.687,-514.244,59980
516.538,-519.815,60003
516.389,-525.388,60060
516.241,-530.965,59970
516.092,-536.545,59937
515.943,-542.128,59933
515.795,-547.715,60029
515.646,-553.304,59994
515.497,-558.897,59997
515.349,-564.493,59979
515.2,-570.092,59964
515.051,-575.695,59977
514.903,-581.301,60009
514.754,-586.91,60009
514.605,-592.522,59933
514.457,-598.137,60058
514.308,-603.756,59955
514.159,-609.378,59939
514.011,-615.003,59947
513.862,-620.632,59966
513.713,-626.264,60040
513.565,-631.899,60036
513.416,-637.537,60022
513.267,-643.179,60000
513.119,-648.823,59969
512.97,-654.472,59990
512.821,-660.123,59981
512.673,-665.778,59981
512.524,-671.435,59952
512.375,-677.097,60094
512.227,-682.761,59960
512.078,-688.429,59981
511.929,-694.1,60037
511.781,-699.774,60024
511.632,-705.452,60014
511.483,-711.133,59984
511.335,-716.817,59967
511.186,-722.505,59944
511.037,-728.196,60014
510.889,-733.89,60044
510.74,-739.587,60049
510.591,-745.288,59939
510.443,-750.992,59990
510.294,-756.7,60027
510.145,-762.411,60032
509.997,-768.125,60034
524.078,-241.303,59958
523.929,-246.717,59942
523.78,-252.134,59967
523.632,-257.555,59987
523.483,-262.978,59984
523.334,-268.405,59982
523.186,-273.835,59967
523.037,-279.267,60044
522.888,-284.703,59930
522.74,-290.142,60023
522.591,-295.584,59938
522.442,-301.03,60023
522.294,-306.478,60014
522.145,-311.929,60118
521.996,-317.384,59975
521.848,-322.841,60020
521.699,-328.302,59968
521.55,-333.766,60066
521.402,-339.233,59992
521.253,-344.703,59995
521.104,-350.176,59966
520.956,-355.652,60001
520.807,-361.132,59960
520.658,-366.614,59899
520.51,-372.1,59945
520.361,-377.589,59974
520.212,-383.081,60043
520.064,-388.576,59935
519.915,-394.074,59982
519.766,-399.575,60034
519.618,-405.08,60048
519.469,-410.587,60000
519.32,-416.098,60056
519.172,-421.612,59940
519.023,-427.129,60018
518.874,-432.65,60001
518.726,-438.173,59964
518.577,-443.7,59897
518.428,-449.23,60064
518.28,-454.763,59988
518.131,-460.299,59988
517.982,-465.838,60005
517.834,-471.381,59991
517.685,-476.926,59984
517.536,-482.475,60022
517.388,-488.027,59967
517.239,-493.582,59961
517.09,-499.141,60044
516.942,-504.703,59974
516.793,-510.267,60015
516.644,-515.835,59980
516.496,-521.407,60015
516.347,-526.981,60002
516.198,-532.559,59984
516.05,-538.14,60015
515.901,-543.724,60044
515.752,-549.311,59964
515.604,-554.902,59900
515.455,-560.496,60072
515.306,-566.093,59958
515.158,-571.693,60014
515.009,-577.296,59939
514.86,-582.903,59933
514.712,-588.513,59966
514.563,-594.126,60043
514.414,-599.743,59953
514.266,-605.362,60022
514.117,-610.985,60018
513.968,-616.611,59991
513.82,-622.241,60002
513.671,-627.873,60017
513.522,-633.509,60063
513.374,-639.149,60069
513.225,-644.791,60051
513.076,-650.437,60043
512.928,-656.086,59983
512.779,-661.738,60055
512.63,-667.394,59952
512.482,-673.053,59995
512.333,-678.715,59942
512.184,-684.38,59967
512.036,-690.049,59975
511.887,-695.721,60054
511.738,-701.396,59950
511.59,-707.075,60062
511.441,-712.757,60010
511.292,-718.442,59940
511.144,-724.13,60040
510.995,-729.822,59910
510.846,-735.517,59975
510.698,-741.216,59987
510.549,-746.918,59917
510.4,-752.623,59937
510.252,-758.331,59989
510.103,-764.043,59945
509.954,-769.758,59960
524.035,-242.849,60037
523.886,-248.264,60082
523.738,-253.683,59981
523.589,-259.104,60059
523.44,-264.528,60026
523.292,-269.956,59940
523.143,-275.387,59982
522.994,-280.82,60147
522.846,-286.257,60070
522.697,-291.697,60021
522.548,-297.14,59990
522.4,-302.586,60041
522.251,-308.035,60001
522.102,-313.487,60008
521.954,-318.943,60013
521.805,-324.401,60054
521.656,-329.863,59973
521.508,-335.327,60074
521.359,-340.795,60097
521.21,-346.266,59985
521.062,-351.74,60004
520.913,-357.217,60033
520.764,-362.698,60086
520.616,-368.181,60004
520.467,-373.668,59967
520.318,-379.157,60049
520.17,-384.65,60009
520.021,-390.146,59998
519.872,-395.645,59982
519.724,-401.148,59948
519.575,-406.653,59924
519.426,-412.162,60005
519.278,-417.673,59951
519.129,-423.188,59998
518.98,-428.706,59949
518.832,-434.228,60018
518.683,-439.752,60000
518.534,-445.279,59982
518.386,-450.81,59985
518.237,-456.344,59987
518.088,-461.881,59998
517.94,-467.421,59930
517.791,-472.965,59938
517.642,-478.511,59999
517.494,-484.061,59943
517.345,-489.614,59965
517.196,-495.17,60024
517.048,-500.73,60067
516.899,-506.292,59981
516.75,-511.858,59934
516.602,-517.427,59995
516.453,-522.999,60079
516.304,-528.575,59961
516.156,-534.153,59971
516.007,-539.735,59973
515.858,-545.32,59980
515.71,-550.908,60015
515.561,-556.5,59988
515.412,-562.094,59959
515.264,-567.692,59972
515.115,-573.293,59998
514.966,-578.898,60022
514.818,-584.505,60009
514.669,-590.116,59914
514.52,-595.73,59905
514.372,-601.348,59985
514.223,-606.968,59903
514.074,-612.592,60002
513.926,-618.219,59929
513.777,-623.85,59942
513.628,-629.483,59980
513.48,-635.12,59986
513.331,-640.76,60055
513.182,-646.404,59996
513.034,-652.05,60022
512.885,-657.7,60036
512.736,-663.354,60042
512.588,-669.01,60001
512.439,-674.67,60055
512.29,-680.333,59975
512.142,-685.999,60036
511.993,-691.669,60014
511.844,-697.342,60025
511.696,-703.018,59980
511.547,-708.698,59966
511.398,-714.381,60002
511.25,-720.067,60009
511.101,-725.756,59970
510.952,-731.449,60003
510.804,-737.145,59975
510.655,-742.845,59962
510.506,-748.547,60025
510.358,-754.253,59984
510.209,-759.963,60041
510.06,-765.676,59963
509.912,-771.392,60013
509.901,-771.8,59966