File: tomke/20240809_Si_on_TiO2/20240809/raw_data/Si_onTiO2_100mA_30mW_30sec_5acc_517nm.txt
Wavelength(nm), Raman shift(cm^-1), Intensity(counts)
525.364,-194.586,79571
525.077,-204.986,80458
524.79,-215.398,80968
524.503,-225.821,81606
524.216,-236.256,81696
523.929,-246.702,82011
523.642,-257.159,85164
523.356,-267.628,99121
523.069,-278.109,137870
522.782,-288.6,162261
522.495,-299.104,166430
522.208,-309.619,165520
521.921,-320.145,164117
521.634,-330.684,163324
521.347,-341.233,162388
521.06,-351.795,160559
520.773,-362.368,158399
520.486,-372.952,155914
520.2,-383.548,154893
519.913,-394.156,153626
519.626,-404.776,152508
519.339,-415.408,150408
519.052,-426.051,147823
518.765,-436.706,145887
518.478,-447.373,143663
518.191,-458.051,143328
517.904,-468.742,142310
517.617,-479.444,141392
517.331,-490.158,142862
517.044,-500.884,147264
516.757,-511.622,139910
516.47,-522.372,137427
516.183,-533.134,136716
515.896,-543.907,135864
515.609,-554.693,134691
515.322,-565.491,134290
515.035,-576.301,133628
514.748,-587.123,133078
514.462,-597.957,132193
514.175,-608.803,131190
513.888,-619.661,129318
513.601,-630.531,129008
513.314,-641.413,128239
513.027,-652.308,126370
512.74,-663.215,125929
512.453,-674.134,124485
512.166,-685.065,123224
511.879,-696.008,122441
511.593,-706.964,120685
511.306,-717.932,119762
511.019,-728.913,118253
510.732,-739.905,117208
510.445,-750.91,115696
510.158,-761.928,114988
509.871,-772.958,113634
509.584,-784,112183
509.297,-795.055,111303
509.01,-806.122,109996
508.723,-817.201,109692
525.152,-202.272,80696
524.865,-212.681,81322
524.578,-223.101,81594
524.291,-233.532,82044
524.004,-243.976,82519
523.717,-254.43,84387
523.43,-264.896,93631
523.143,-275.373,130356
522.857,-285.862,163162
522.57,-296.363,170981
522.283,-306.875,171652
521.996,-317.398,169585
521.709,-327.933,167976
521.422,-338.48,166950
521.135,-349.038,165418
520.848,-359.608,163803
520.561,-370.19,161025
520.274,-380.783,159659
519.988,-391.388,157391
519.701,-402.005,156764
519.414,-412.633,155681
519.127,-423.273,153069
518.84,-433.925,150407
518.553,-444.589,148617
518.266,-455.264,147229
517.979,-465.952,146025
517.692,-476.651,145204
517.405,-487.362,145434
517.119,-498.085,151595
516.832,-508.82,144983
516.545,-519.566,141959
516.258,-530.325,140369
515.971,-541.096,139869
515.684,-551.878,138915
515.397,-562.673,138461
515.11,-573.48,137553
514.823,-584.298,136858
514.536,-595.129,135729
514.249,-605.972,134945
513.963,-616.827,133636
513.676,-627.694,132412
513.389,-638.573,130916
513.102,-649.465,130193
512.815,-660.368,128272
512.528,-671.284,128984
512.241,-682.212,126643
511.954,-693.152,125921
511.667,-704.105,123817
511.38,-715.07,122868
511.094,-726.047,121399
510.807,-737.036,120741
510.52,-748.038,119290
510.233,-759.052,118096
509.946,-770.079,116155
509.659,-781.118,114924
509.372,-792.17,113938
509.085,-803.233,112663
508.798,-814.31,111429
525.227,-199.558,80736
524.94,-209.964,81148
524.653,-220.381,81663
524.366,-230.81,82360
524.079,-241.25,82749
523.792,-251.702,83922
523.505,-262.165,89813
523.218,-272.639,119143
522.931,-283.125,158269
522.644,-293.622,171142
522.358,-304.131,172703
522.071,-314.652,171036
521.784,-325.184,169742
521.497,-335.728,168636
521.21,-346.283,167041
520.923,-356.85,164780
520.636,-367.428,163076
520.349,-378.019,160337
520.062,-388.62,158996
519.775,-399.234,158041
519.489,-409.859,156958
519.202,-420.496,154002
518.915,-431.145,152288
518.628,-441.806,149699
518.341,-452.478,149429
518.054,-463.163,147619
517.767,-473.859,146673
517.48,-484.567,145819
517.193,-495.286,151102
516.906,-506.018,147282
516.62,-516.762,143042
516.333,-527.517,141653
516.046,-538.285,140722
515.759,-549.064,139807
515.472,-559.856,139226
515.185,-570.659,138025
514.898,-581.475,137083
514.611,-592.303,136659
514.324,-603.142,135823
514.037,-613.994,134669
513.751,-624.858,133642
513.464,-635.734,132370
513.177,-646.622,131372
512.89,-657.523,129866
512.603,-668.435,129233
512.316,-679.36,127189
512.029,-690.297,126110
511.742,-701.247,124900
511.455,-712.208,123631
511.168,-723.182,122566
510.881,-734.168,121307
510.595,-745.167,120068
510.308,-756.178,118410
510.021,-767.201,117721
509.734,-778.237,116121
509.447,-789.285,114636
509.16,-800.346,113826
508.873,-811.419,112216
525.301,-196.846,80484
525.015,-207.249,80702
524.728,-217.663,81388
524.441,-228.088,81666
524.154,-238.526,82127
523.867,-248.974,83116
523.58,-259.434,86473
523.293,-269.905,106720
523.006,-280.388,148579
522.719,-290.883,167583
522.432,-301.389,169154
522.146,-311.906,169504
521.859,-322.435,167643
521.572,-332.976,166244
521.285,-343.528,164649
520.998,-354.092,162961
520.711,-364.668,161281
520.424,-375.255,158502
520.137,-385.854,158954
519.85,-396.464,156434
519.563,-407.086,155321
519.277,-417.72,152987
518.99,-428.366,149883
518.703,-439.024,147787
518.416,-449.693,146851
518.129,-460.374,145677
517.842,-471.067,144444
517.555,-481.772,143800
517.268,-492.489,147172
516.981,-503.217,148715
516.694,-513.958,141514
516.407,-524.71,140486
516.121,-535.475,139053
515.834,-546.251,137806
515.547,-557.039,137354
515.26,-567.84,136826
514.973,-578.652,135737
514.686,-589.477,135314
514.399,-600.313,134571
514.112,-611.162,133143
513.825,-622.023,131974
513.538,-632.896,131003
513.252,-643.781,129642
512.965,-654.678,129007
512.678,-665.587,128268
512.391,-676.509,126370
512.104,-687.443,125600
511.817,-698.389,123925
511.53,-709.347,122873
511.243,-720.318,120983
510.956,-731.301,120883
510.669,-742.297,118827
510.383,-753.304,117978
510.096,-764.325,116619
509.809,-775.357,115202
509.522,-786.402,113596
509.235,-797.459,112734
508.948,-808.529,111787
508.661,-819.612,110649
525.089,-204.534,80957
524.802,-214.945,81357
524.516,-225.368,82005
524.229,-235.802,82458
523.942,-246.247,83195
523.655,-256.704,85819
523.368,-267.173,99827
523.081,-277.653,140703
522.794,-288.144,168769
522.507,-298.647,173612
522.22,-309.161,173086
521.933,-319.687,171710
521.647,-330.225,169409
521.36,-340.774,168022
521.073,-351.335,167366
520.786,-361.908,165056
520.499,-372.492,163200
520.212,-383.088,161102
519.925,-393.695,159390
519.638,-404.314,159105
519.351,-414.945,156704
519.064,-425.588,154189
518.778,-436.242,151719
518.491,-446.909,150030
518.204,-457.587,148953
517.917,-468.277,147839
517.63,-478.978,147308
517.343,-489.692,147769
517.056,-500.417,152975
516.769,-511.155,145429
516.482,-521.904,143264
516.195,-532.665,141835
515.909,-543.439,140865
515.622,-554.224,140815
515.335,-565.021,139920
515.048,-575.831,138345
514.761,-586.652,137907
514.474,-597.485,137859
514.187,-608.331,135726
513.9,-619.188,135179
513.613,-630.058,134404
513.326,-640.94,132618
513.04,-651.834,131834
512.753,-662.74,130221
512.466,-673.659,128903
512.179,-684.589,127829
511.892,-695.532,126348
511.605,-706.488,124657
511.318,-717.455,123630
511.031,-728.435,122587
510.744,-739.427,121751
510.457,-750.432,119883
510.17,-761.448,118606
509.884,-772.478,117429
509.597,-783.52,116115
509.31,-794.574,114792
509.023,-805.64,113946
508.736,-816.719,112246
508.661,-819.612,112360