File: tomke/20240809_Si_on_TiO2/20240809/raw_data/Si_onTiO2_70mA_30mW_30sec_5acc_517nm.txt
Wavelength(nm), Raman shift(cm^-1), Intensity(counts)
525.364,-194.586,72639
525.077,-204.986,73479
524.79,-215.398,73564
524.503,-225.821,73578
524.216,-236.256,73849
523.929,-246.702,74164
523.642,-257.159,75542
523.356,-267.628,84435
523.069,-278.109,108293
522.782,-288.6,122673
522.495,-299.104,125445
522.208,-309.619,125277
521.921,-320.145,124312
521.634,-330.684,122867
521.347,-341.233,122287
521.06,-351.795,121061
520.773,-362.368,119556
520.486,-372.952,117746
520.2,-383.548,117495
519.913,-394.156,116386
519.626,-404.776,115694
519.339,-415.408,114150
519.052,-426.051,113862
518.765,-436.706,111722
518.478,-447.373,110695
518.191,-458.051,109888
517.904,-468.742,109942
517.617,-479.444,109370
517.331,-490.158,111311
517.044,-500.884,117089
516.757,-511.622,109389
516.47,-522.372,106925
516.183,-533.134,106268
515.896,-543.907,105811
515.609,-554.693,105740
515.322,-565.491,104957
515.035,-576.301,104225
514.748,-587.123,103453
514.462,-597.957,103722
514.175,-608.803,102941
513.888,-619.661,102348
513.601,-630.531,101687
513.314,-641.413,100963
513.027,-652.308,100454
512.74,-663.215,99807
512.453,-674.134,98867
512.166,-685.065,97867
511.879,-696.008,96888
511.593,-706.964,96621
511.306,-717.932,95655
511.019,-728.913,95358
510.732,-739.905,94708
510.445,-750.91,93766
510.158,-761.928,93082
509.871,-772.958,92218
509.584,-784,91396
509.297,-795.055,90858
509.01,-806.122,90117
508.723,-817.201,89843
525.152,-202.272,72914
524.865,-212.681,73304
524.578,-223.101,73527
524.291,-233.532,73705
524.004,-243.976,74190
523.717,-254.43,75228
523.43,-264.896,80777
523.143,-275.373,101810
522.857,-285.862,121102
522.57,-296.363,125563
522.283,-306.875,125575
521.996,-317.398,125284
521.709,-327.933,123977
521.422,-338.48,122840
521.135,-349.038,122029
520.848,-359.608,120463
520.561,-370.19,119424
520.274,-380.783,118249
519.988,-391.388,117183
519.701,-402.005,117172
519.414,-412.633,116435
519.127,-423.273,114057
518.84,-433.925,113467
518.553,-444.589,111019
518.266,-455.264,111075
517.979,-465.952,110384
517.692,-476.651,110411
517.405,-487.362,111493
517.119,-498.085,117474
516.832,-508.82,111467
516.545,-519.566,108531
516.258,-530.325,107106
515.971,-541.096,106929
515.684,-551.878,105747
515.397,-562.673,105423
515.11,-573.48,105462
514.823,-584.298,105236
514.536,-595.129,104415
514.249,-605.972,103885
513.963,-616.827,102710
513.676,-627.694,102296
513.389,-638.573,101877
513.102,-649.465,101403
512.815,-660.368,100145
512.528,-671.284,99816
512.241,-682.212,98489
511.954,-693.152,98140
511.667,-704.105,97032
511.38,-715.07,96352
511.094,-726.047,95846
510.807,-737.036,95128
510.52,-748.038,94451
510.233,-759.052,93787
509.946,-770.079,92641
509.659,-781.118,91846
509.372,-792.17,91253
509.085,-803.233,90994
508.798,-814.31,90280
525.227,-199.558,72895
524.94,-209.964,73064
524.653,-220.381,73324
524.366,-230.81,73277
524.079,-241.25,73866
523.792,-251.702,74371
523.505,-262.165,78113
523.218,-272.639,94385
522.931,-283.125,116399
522.644,-293.622,123980
522.358,-304.131,123968
522.071,-314.652,123295
521.784,-325.184,122726
521.497,-335.728,121193
521.21,-346.283,120772
520.923,-356.85,120154
520.636,-367.428,118382
520.349,-378.019,117402
520.062,-388.62,116461
519.775,-399.234,115747
519.489,-409.859,114715
519.202,-420.496,113933
518.915,-431.145,112215
518.628,-441.806,110492
518.341,-452.478,110333
518.054,-463.163,109967
517.767,-473.859,108927
517.48,-484.567,108921
517.193,-495.286,114350
516.906,-506.018,112156
516.62,-516.762,107141
516.333,-527.517,106204
516.046,-538.285,106043
515.759,-549.064,105213
515.472,-559.856,104454
515.185,-570.659,104188
514.898,-581.475,103422
514.611,-592.303,103600
514.324,-603.142,102995
514.037,-613.994,102369
513.751,-624.858,101479
513.464,-635.734,100933
513.177,-646.622,100210
512.89,-657.523,99307
512.603,-668.435,98999
512.316,-679.36,98114
512.029,-690.297,97275
511.742,-701.247,96143
511.455,-712.208,95732
511.168,-723.182,95208
510.881,-734.168,94446
510.595,-745.167,93624
510.308,-756.178,93343
510.021,-767.201,91935
509.734,-778.237,91052
509.447,-789.285,90922
509.16,-800.346,90073
508.873,-811.419,89316
525.301,-196.846,72861
525.015,-207.249,73135
524.728,-217.663,73574
524.441,-228.088,73838
524.154,-238.526,73912
523.867,-248.974,74573
523.58,-259.434,76690
523.293,-269.905,88548
523.006,-280.388,112287
522.719,-290.883,123963
522.432,-301.389,125819
522.146,-311.906,124842
521.859,-322.435,123784
521.572,-332.976,122674
521.285,-343.528,122102
520.998,-354.092,120686
520.711,-364.668,119448
520.424,-375.255,117871
520.137,-385.854,117533
519.85,-396.464,116919
519.563,-407.086,115973
519.277,-417.72,114699
518.99,-428.366,112989
518.703,-439.024,111570
518.416,-449.693,110705
518.129,-460.374,110546
517.842,-471.067,110093
517.555,-481.772,109591
517.268,-492.489,112611
516.981,-503.217,115739
516.694,-513.958,108516
516.407,-524.71,106996
516.121,-535.475,106569
515.834,-546.251,105917
515.547,-557.039,105062
515.26,-567.84,104765
514.973,-578.652,104695
514.686,-589.477,104399
514.399,-600.313,103509
514.112,-611.162,102592
513.825,-622.023,102334
513.538,-632.896,101851
513.252,-643.781,100966
512.965,-654.678,100483
512.678,-665.587,99690
512.391,-676.509,98598
512.104,-687.443,97999
511.817,-698.389,97430
511.53,-709.347,95993
511.243,-720.318,95629
510.956,-731.301,95091
510.669,-742.297,94496
510.383,-753.304,93293
510.096,-764.325,92930
509.809,-775.357,92328
509.522,-786.402,91658
509.235,-797.459,90840
508.948,-808.529,89584
508.661,-819.612,89111
525.089,-204.534,73167
524.802,-214.945,73559
524.516,-225.368,73737
524.229,-235.802,73854
523.942,-246.247,74252
523.655,-256.704,76074
523.368,-267.173,83953
523.081,-277.653,108074
522.794,-288.144,123173
522.507,-298.647,125913
522.22,-309.161,125573
521.933,-319.687,125380
521.647,-330.225,123721
521.36,-340.774,123329
521.073,-351.335,122261
520.786,-361.908,120552
520.499,-372.492,119461
520.212,-383.088,118452
519.925,-393.695,117474
519.638,-404.314,117064
519.351,-414.945,115916
519.064,-425.588,114614
518.778,-436.242,112540
518.491,-446.909,111757
518.204,-457.587,111166
517.917,-468.277,110747
517.63,-478.978,110618
517.343,-489.692,112506
517.056,-500.417,117955
516.769,-511.155,110539
516.482,-521.904,108606
516.195,-532.665,107911
515.909,-543.439,106683
515.622,-554.224,106182
515.335,-565.021,105513
515.048,-575.831,105114
514.761,-586.652,104553
514.474,-597.485,104611
514.187,-608.331,103826
513.9,-619.188,103251
513.613,-630.058,102329
513.326,-640.94,101661
513.04,-651.834,101340
512.753,-662.74,100077
512.466,-673.659,99777
512.179,-684.589,98244
511.892,-695.532,97957
511.605,-706.488,97220
511.318,-717.455,96293
511.031,-728.435,95773
510.744,-739.427,95437
510.457,-750.432,94675
510.17,-761.448,93589
509.884,-772.478,92838
509.597,-783.52,92196
509.31,-794.574,91459
509.023,-805.64,90764
508.736,-816.719,90078
508.661,-819.612,89889