File: tomke/20240809_Si_on_TiO2/20240809/raw_data/Si_onTiO2_0mA_30mW_30sec_4acc_517nm.txt
Wavelength(nm), Raman shift(cm^-1), Intensity(counts)
524.12,-239.756,59662
523.929,-246.717,60075
523.738,-253.683,60018
523.547,-260.654,59907
523.355,-267.629,59941
523.164,-274.611,60026
522.973,-281.597,60043
522.782,-288.588,60019
522.591,-295.584,60007
522.4,-302.586,60011
522.209,-309.592,60162
522.017,-316.604,60251
521.826,-323.621,60199
521.635,-330.643,60186
521.444,-337.67,60196
521.253,-344.703,60142
521.062,-351.74,60221
520.871,-358.783,60202
520.679,-365.831,60151
520.488,-372.884,60131
520.297,-379.942,60067
520.106,-387.005,60099
519.915,-394.074,60070
519.724,-401.148,60094
519.533,-408.227,60023
519.341,-415.311,59980
519.15,-422.4,60040
518.959,-429.495,60092
518.768,-436.595,60066
518.577,-443.7,60114
518.386,-450.81,60101
518.195,-457.926,59986
518.003,-465.047,60012
517.812,-472.173,59919
517.621,-479.304,60036
517.43,-486.441,60065
517.239,-493.582,60064
517.048,-500.73,60028
516.857,-507.882,60197
516.666,-515.04,62733
516.474,-522.203,61940
516.283,-529.371,60141
516.092,-536.545,60035
515.901,-543.724,60011
515.71,-550.908,59987
515.519,-558.098,60005
515.328,-565.293,60036
515.136,-572.493,59998
514.945,-579.699,60063
514.754,-586.91,60085
514.563,-594.126,59979
514.372,-601.348,60102
514.181,-608.575,59966
513.99,-615.807,59970
513.798,-623.045,60069
513.607,-630.288,60007
513.416,-637.537,59998
513.225,-644.791,60071
513.034,-652.05,59992
512.843,-659.315,60008
512.652,-666.586,60070
512.46,-673.861,59992
512.269,-681.142,60120
512.078,-688.429,59942
511.887,-695.721,59926
511.696,-703.018,59940
511.505,-710.321,60047
511.314,-717.63,59940
511.122,-724.943,59987
510.931,-732.263,59972
510.74,-739.587,60039
510.549,-746.918,59967
510.358,-754.253,60009
510.167,-761.595,60007
509.976,-768.941,59966
524.014,-243.623,60020
523.823,-250.586,59976
523.632,-257.555,59991
523.44,-264.528,59995
523.249,-271.507,59974
523.058,-278.491,59909
522.867,-285.48,59942
522.676,-292.474,60025
522.485,-299.473,59948
522.294,-306.478,60097
522.102,-313.487,60156
521.911,-320.502,60170
521.72,-327.522,60318
521.529,-334.547,60288
521.338,-341.577,60218
521.147,-348.612,60199
520.956,-355.652,60164
520.764,-362.698,60073
520.573,-369.748,60136
520.382,-376.804,60087
520.191,-383.865,60107
520,-390.932,60099
519.809,-398.003,60028
519.618,-405.08,60049
519.426,-412.162,60140
519.235,-419.249,60092
519.044,-426.341,60133
518.853,-433.439,60089
518.662,-440.541,60054
518.471,-447.649,60108
518.28,-454.763,60087
518.088,-461.881,60052
517.897,-469.005,60013
517.706,-476.134,60048
517.515,-483.268,60098
517.324,-490.408,60042
517.133,-497.552,60182
516.942,-504.703,60097
516.75,-511.858,60523
516.559,-519.019,66650
516.368,-526.185,60402
516.177,-533.356,60121
515.986,-540.533,59981
515.795,-547.715,59973
515.604,-554.902,59997
515.412,-562.094,60012
515.221,-569.292,59957
515.03,-576.496,60029
514.839,-583.704,59994
514.648,-590.918,59961
514.457,-598.137,60124
514.266,-605.362,60057
514.074,-612.592,60126
513.883,-619.828,59988
513.692,-627.069,59980
513.501,-634.315,60063
513.31,-641.566,59925
513.119,-648.823,60063
512.928,-656.086,59967
512.736,-663.354,60027
512.545,-670.627,59959
512.354,-677.906,60054
512.163,-685.19,60036
511.972,-692.479,59939
511.781,-699.774,59950
511.59,-707.075,59984
511.398,-714.381,59978
511.207,-721.692,59978
511.016,-729.009,60037
510.825,-736.331,60009
510.634,-743.659,59987
510.443,-750.992,59975
510.252,-758.331,60050
510.06,-765.676,59959
524.099,-240.529,59881
523.908,-247.491,60062
523.717,-254.457,60057
523.525,-261.428,59933
523.334,-268.405,59955
523.143,-275.387,59995
522.952,-282.373,59999
522.761,-289.365,60111
522.57,-296.362,59990
522.379,-303.364,60030
522.187,-310.371,60129
521.996,-317.384,60106
521.805,-324.401,60256
521.614,-331.424,60333
521.423,-338.451,60309
521.232,-345.484,60276
521.041,-352.522,60134
520.849,-359.566,60124
520.658,-366.614,60177
520.467,-373.668,60092
520.276,-380.726,60167
520.085,-387.79,60088
519.894,-394.86,59972
519.703,-401.934,60113
519.511,-409.013,60197
519.32,-416.098,60056
519.129,-423.188,60078
518.938,-430.283,60054
518.747,-437.384,60099
518.556,-444.49,60055
518.365,-451.6,60027
518.173,-458.717,59992
517.982,-465.838,60020
517.791,-472.965,59927
517.6,-480.097,60058
517.409,-487.234,59996
517.218,-494.376,60039
517.027,-501.524,60070
516.835,-508.677,60264
516.644,-515.835,64404
516.453,-522.999,61400
516.262,-530.168,60058
516.071,-537.342,60101
515.88,-544.522,60036
515.689,-551.707,60034
515.497,-558.897,60048
515.306,-566.093,60015
515.115,-573.293,60011
514.924,-580.5,59999
514.733,-587.711,60119
514.542,-594.928,59970
514.351,-602.151,60049
514.159,-609.378,60074
513.968,-616.611,59963
513.777,-623.85,59990
513.586,-631.094,60024
513.395,-638.343,59986
513.204,-645.597,60036
513.013,-652.857,59968
512.821,-660.123,60030
512.63,-667.394,60001
512.439,-674.67,59974
512.248,-681.952,60000
512.057,-689.239,60028
511.866,-696.531,60000
511.675,-703.83,59987
511.483,-711.133,59922
511.292,-718.442,59974
511.101,-725.756,60030
510.91,-733.076,59960
510.719,-740.402,59936
510.528,-747.733,60049
510.337,-755.069,60004
510.145,-762.411,60035
509.954,-769.758,60027
523.993,-244.396,59999
523.801,-251.36,60032
523.61,-258.329,59954
523.419,-265.304,60072
523.228,-272.283,60047
523.037,-279.267,59953
522.846,-286.257,59955
522.655,-293.252,59971
522.463,-300.251,60042
522.272,-307.256,60100
522.081,-314.266,60070
521.89,-321.282,60321
521.699,-328.302,60228
521.508,-335.327,60330
521.317,-342.358,60181
521.125,-349.394,60204
520.934,-356.435,60180
520.743,-363.481,60157
520.552,-370.532,60103
520.361,-377.589,60144
520.17,-384.65,60141
519.979,-391.717,61876
519.787,-398.789,60066
519.596,-405.866,60008
519.405,-412.949,60124
519.214,-420.037,60107
519.023,-427.129,60111
518.832,-434.228,59964
518.641,-441.331,60072
518.449,-448.439,60105
518.258,-455.553,60085
518.067,-462.672,60000
517.876,-469.797,59994
517.685,-476.926,60075
517.494,-484.061,60027
517.303,-491.201,60087
517.111,-498.347,60042
516.92,-505.497,60135
516.729,-512.653,60812
516.538,-519.815,65358
516.347,-526.981,60360
516.156,-534.153,60093
515.965,-541.33,59992
515.774,-548.513,60009
515.582,-555.701,60082
515.391,-562.894,60019
515.2,-570.092,60079
515.009,-577.296,59992
514.818,-584.505,60028
514.627,-591.72,60058
514.436,-598.94,60086
514.244,-606.165,59981
514.053,-613.396,60112
513.862,-620.632,60052
513.671,-627.873,60076
513.48,-635.12,60061
513.289,-642.372,60000
513.098,-649.63,60024
512.906,-656.893,59986
512.715,-664.162,59895
512.524,-671.435,60033
512.333,-678.715,60005
512.142,-685.999,60052
511.951,-693.29,60051
511.76,-700.585,59995
511.568,-707.886,59980
511.377,-715.193,59967
511.186,-722.505,60101
510.995,-729.822,60073
510.804,-737.145,60022
510.613,-744.474,60008
510.422,-751.808,60045
510.23,-759.147,60144
510.039,-766.492,59932
509.901,-771.8,60037