File: tomke/20240809_Si_on_TiO2/20240809/raw_data/Si_onTiO2_50mA_30mW_30sec_5acc_517nm.txt
Wavelength(nm), Raman shift(cm^-1), Intensity(counts)
525.364,-194.586,63234
525.077,-204.986,63742
524.79,-215.398,63811
524.503,-225.821,63953
524.216,-236.256,63851
523.929,-246.702,64024
523.642,-257.159,64175
523.356,-267.628,65238
523.069,-278.109,68193
522.782,-288.6,70281
522.495,-299.104,70253
522.208,-309.619,69653
521.921,-320.145,79823
521.634,-330.684,69184
521.347,-341.233,68808
521.06,-351.795,68693
520.773,-362.368,68601
520.486,-372.952,68162
520.2,-383.548,68183
519.913,-394.156,67347
519.626,-404.776,67249
519.339,-415.408,67359
519.052,-426.051,66775
518.765,-436.706,66771
518.478,-447.373,66376
518.191,-458.051,66332
517.904,-468.742,66150
517.617,-479.444,66299
517.331,-490.158,67140
517.044,-500.884,73564
516.757,-511.622,68388
516.47,-522.372,66266
516.183,-533.134,65350
515.896,-543.907,65374
515.609,-554.693,65119
515.322,-565.491,65141
515.035,-576.301,64976
514.748,-587.123,65058
514.462,-597.957,64996
514.175,-608.803,64922
513.888,-619.661,64798
513.601,-630.531,64779
513.314,-641.413,64650
513.027,-652.308,64498
512.74,-663.215,64490
512.453,-674.134,64347
512.166,-685.065,64299
511.879,-696.008,64188
511.593,-706.964,64125
511.306,-717.932,64121
511.019,-728.913,63970
510.732,-739.905,63941
510.445,-750.91,63655
510.158,-761.928,63629
509.871,-772.958,63637
509.584,-784,63694
509.297,-795.055,63684
509.01,-806.122,63445
508.723,-817.201,63369
525.152,-202.272,63797
524.865,-212.681,63797
524.578,-223.101,63827
524.291,-233.532,63700
524.004,-243.976,63876
523.717,-254.43,64197
523.43,-264.896,64890
523.143,-275.373,67219
522.857,-285.862,69385
522.57,-296.363,70106
522.283,-306.875,69915
521.996,-317.398,69456
521.709,-327.933,69366
521.422,-338.48,69039
521.135,-349.038,68887
520.848,-359.608,68618
520.561,-370.19,68195
520.274,-380.783,67817
519.988,-391.388,67548
519.701,-402.005,67649
519.414,-412.633,67406
519.127,-423.273,67181
518.84,-433.925,66754
518.553,-444.589,66495
518.266,-455.264,66469
517.979,-465.952,66210
517.692,-476.651,66156
517.405,-487.362,66857
517.119,-498.085,71609
516.832,-508.82,70595
516.545,-519.566,66175
516.258,-530.325,65652
515.971,-541.096,65487
515.684,-551.878,65136
515.397,-562.673,65180
515.11,-573.48,64866
514.823,-584.298,65143
514.536,-595.129,65293
514.249,-605.972,65012
513.963,-616.827,65209
513.676,-627.694,64962
513.389,-638.573,64751
513.102,-649.465,64604
512.815,-660.368,64590
512.528,-671.284,64361
512.241,-682.212,64262
511.954,-693.152,64073
511.667,-704.105,64076
511.38,-715.07,64160
511.094,-726.047,63848
510.807,-737.036,63978
510.52,-748.038,63941
510.233,-759.052,63846
509.946,-770.079,63678
509.659,-781.118,63565
509.372,-792.17,63553
509.085,-803.233,63466
508.798,-814.31,63341
525.227,-199.558,63643
524.94,-209.964,63622
524.653,-220.381,63729
524.366,-230.81,63877
524.079,-241.25,63807
523.792,-251.702,63979
523.505,-262.165,64380
523.218,-272.639,66377
522.931,-283.125,69239
522.644,-293.622,69909
522.358,-304.131,69865
522.071,-314.652,69587
521.784,-325.184,69133
521.497,-335.728,69256
521.21,-346.283,68702
520.923,-356.85,68572
520.636,-367.428,68321
520.349,-378.019,68030
520.062,-388.62,68062
519.775,-399.234,67679
519.489,-409.859,67222
519.202,-420.496,67151
518.915,-431.145,66698
518.628,-441.806,66668
518.341,-452.478,69646
518.054,-463.163,66010
517.767,-473.859,66168
517.48,-484.567,66685
517.193,-495.286,69357
516.906,-506.018,72791
516.62,-516.762,66650
516.333,-527.517,65803
516.046,-538.285,65370
515.759,-549.064,65220
515.472,-559.856,65069
515.185,-570.659,65055
514.898,-581.475,64920
514.611,-592.303,65037
514.324,-603.142,64867
514.037,-613.994,64775
513.751,-624.858,64682
513.464,-635.734,64618
513.177,-646.622,64535
512.89,-657.523,64601
512.603,-668.435,64519
512.316,-679.36,64218
512.029,-690.297,64263
511.742,-701.247,64025
511.455,-712.208,64084
511.168,-723.182,64102
510.881,-734.168,63935
510.595,-745.167,63656
510.308,-756.178,63663
510.021,-767.201,63588
509.734,-778.237,63523
509.447,-789.285,63602
509.16,-800.346,63387
508.873,-811.419,63326
525.301,-196.846,63641
525.015,-207.249,63652
524.728,-217.663,63823
524.441,-228.088,63746
524.154,-238.526,63890
523.867,-248.974,63924
523.58,-259.434,64232
523.293,-269.905,65726
523.006,-280.388,68538
522.719,-290.883,70098
522.432,-301.389,69634
522.146,-311.906,69494
521.859,-322.435,69074
521.572,-332.976,69000
521.285,-343.528,68749
520.998,-354.092,68588
520.711,-364.668,68191
520.424,-375.255,67933
520.137,-385.854,67874
519.85,-396.464,67370
519.563,-407.086,67419
519.277,-417.72,67085
518.99,-428.366,66643
518.703,-439.024,66491
518.416,-449.693,66186
518.129,-460.374,66152
517.842,-471.067,65892
517.555,-481.772,66285
517.268,-492.489,67773
516.981,-503.217,74144
516.694,-513.958,67221
516.407,-524.71,65720
516.121,-535.475,65322
515.834,-546.251,65077
515.547,-557.039,64936
515.26,-567.84,65121
514.973,-578.652,64613
514.686,-589.477,64956
514.399,-600.313,64870
514.112,-611.162,64930
513.825,-622.023,64620
513.538,-632.896,64651
513.252,-643.781,64470
512.965,-654.678,64547
512.678,-665.587,64571
512.391,-676.509,64200
512.104,-687.443,64172
511.817,-698.389,64171
511.53,-709.347,64146
511.243,-720.318,63834
510.956,-731.301,63713
510.669,-742.297,63878
510.383,-753.304,63656
510.096,-764.325,63662
509.809,-775.357,63512
509.522,-786.402,63368
509.235,-797.459,63426
508.948,-808.529,63460
508.661,-819.612,63233
525.089,-204.534,63621
524.802,-214.945,63720
524.516,-225.368,63908
524.229,-235.802,63871
523.942,-246.247,63623
523.655,-256.704,64073
523.368,-267.173,65172
523.081,-277.653,67656
522.794,-288.144,69663
522.507,-298.647,69886
522.22,-309.161,69365
521.933,-319.687,69064
521.647,-330.225,68901
521.36,-340.774,68557
521.073,-351.335,68592
520.786,-361.908,67942
520.499,-372.492,67947
520.212,-383.088,67769
519.925,-393.695,67487
519.638,-404.314,67225
519.351,-414.945,67084
519.064,-425.588,66779
518.778,-436.242,66563
518.491,-446.909,66199
518.204,-457.587,66194
517.917,-468.277,66039
517.63,-478.978,66055
517.343,-489.692,67096
517.056,-500.417,73161
516.769,-511.155,68410
516.482,-521.904,65994
516.195,-532.665,65279
515.909,-543.439,65097
515.622,-554.224,64986
515.335,-565.021,65084
515.048,-575.831,64940
514.761,-586.652,64844
514.474,-597.485,64904
514.187,-608.331,64868
513.9,-619.188,64683
513.613,-630.058,64737
513.326,-640.94,64439
513.04,-651.834,64442
512.753,-662.74,64163
512.466,-673.659,64376
512.179,-684.589,64186
511.892,-695.532,64094
511.605,-706.488,63994
511.318,-717.455,63807
511.031,-728.435,63798
510.744,-739.427,63888
510.457,-750.432,63693
510.17,-761.448,63706
509.884,-772.478,63559
509.597,-783.52,63437
509.31,-794.574,63481
509.023,-805.64,63252
508.736,-816.719,63206
508.661,-819.612,63199