File: tomke/20240809_Si_on_TiO2/20240809/raw_data/Si_onTiO2_0mA_30mW_30sec_3acc_545nm_bg_new.txt
Wavelength(nm), Raman shift(cm^-1), Intensity(counts)
552.12,727.839,59794
551.971,722.961,60005
551.823,718.08,60005
551.674,713.197,59915
551.525,708.31,60014
551.377,703.422,60025
551.228,698.53,59993
551.079,693.636,59966
550.931,688.74,60109
550.782,683.84,59953
550.633,678.938,60027
550.485,674.034,60056
550.336,669.127,59982
550.187,664.217,59980
550.039,659.304,59942
549.89,654.389,60051
549.741,649.471,59942
549.593,644.55,59991
549.444,639.627,59973
549.295,634.701,59972
549.147,629.773,60040
548.998,624.842,60055
548.849,619.908,59964
548.701,614.971,60032
548.552,610.032,59993
548.403,605.09,59953
548.255,600.146,59993
548.106,595.198,59911
547.957,590.248,59933
547.809,585.296,60012
547.66,580.34,59974
547.511,575.382,60013
547.363,570.422,59990
547.214,565.458,60041
547.065,560.492,60034
546.917,555.523,59961
546.768,550.552,60006
546.619,545.578,59983
546.471,540.601,60022
546.322,535.621,59948
546.173,530.639,59992
546.025,525.654,60048
545.876,520.666,60034
545.727,515.676,60082
545.579,510.682,59988
545.43,505.686,60082
545.281,500.688,60057
545.133,495.686,60071
544.984,490.682,60011
544.835,485.676,59988
544.687,480.666,59963
544.538,475.654,59985
544.389,470.639,59936
544.241,465.621,60027
544.092,460.6,59984
543.943,455.577,60061
543.795,450.551,60096
543.646,445.522,60058
543.497,440.491,59987
543.349,435.457,60025
543.2,430.42,59985
543.051,425.38,59989
542.903,420.337,59978
542.754,415.292,60054
542.605,410.244,60063
542.457,405.193,59980
542.308,400.139,60015
542.159,395.083,59988
542.011,390.024,59979
541.862,384.962,59987
541.713,379.897,59943
541.565,374.83,60088
541.416,369.76,59960
541.267,364.687,59983
541.119,359.611,60007
540.97,354.532,59927
540.821,349.451,59997
540.673,344.367,60001
540.524,339.28,60028
540.375,334.19,59976
540.227,329.097,59994
540.078,324.002,60013
539.929,318.903,59939
539.781,313.802,59989
539.632,308.699,60058
539.483,303.592,59944
539.335,298.483,60017
539.186,293.37,60048
539.037,288.255,60019
538.889,283.137,60039
538.74,278.016,59985
538.591,272.893,60027
538.443,267.766,60029
538.294,262.637,60042
538.145,257.505,60006
537.997,252.37,59961
552.078,726.446,60101
551.929,721.567,59944
551.78,716.685,60092
551.632,711.801,59955
551.483,706.914,59953
551.334,702.024,59910
551.186,697.132,59905
551.037,692.238,60051
550.888,687.34,59977
550.74,682.44,59954
550.591,677.537,59947
550.442,672.632,59969
550.294,667.724,60065
550.145,662.813,60024
549.996,657.9,60019
549.848,652.984,59990
549.699,648.065,59953
549.55,643.144,60046
549.402,638.22,59990
549.253,633.294,59978
549.104,628.364,60033
548.956,623.432,60001
548.807,618.498,59996
548.658,613.56,59955
548.51,608.62,59981
548.361,603.678,60041
548.212,598.732,59977
548.064,593.784,60017
547.915,588.834,59949
547.766,583.88,60021
547.618,578.924,59858
547.469,573.965,60013
547.32,569.004,60013
547.172,564.04,60002
547.023,559.073,59889
546.874,554.103,60082
546.726,549.131,59978
546.577,544.156,59983
546.428,539.178,59943
546.28,534.198,59979
546.131,529.215,60054
545.982,524.229,60027
545.834,519.24,60045
545.685,514.249,60010
545.536,509.255,60055
545.388,504.259,60009
545.239,499.259,60024
545.09,494.257,59959
544.942,489.252,59962
544.793,484.245,60048
544.644,479.234,59938
544.496,474.221,60100
544.347,469.205,60042
544.198,464.187,60043
544.05,459.165,59926
543.901,454.141,59936
543.752,449.115,60000
543.604,444.085,60066
543.455,439.053,60021
543.306,434.018,60001
543.158,428.98,60007
543.009,423.939,59960
542.86,418.896,59961
542.712,413.85,60033
542.563,408.801,60066
542.414,403.749,59959
542.266,398.695,59971
542.117,393.638,59970
541.968,388.578,60024
541.82,383.515,60068
541.671,378.45,60054
541.522,373.382,59936
541.374,368.31,59957
541.225,363.237,60025
541.076,358.16,59984
540.928,353.081,60053
540.779,347.998,59977
540.63,342.913,60035
540.482,337.826,59992
540.333,332.735,60013
540.184,327.642,60046
540.036,322.545,59958
539.887,317.446,59978
539.738,312.345,59971
539.59,307.24,59997
539.441,302.132,59969
539.292,297.022,59954
539.144,291.909,59922
538.995,286.793,59914
538.846,281.674,59995
538.698,276.553,60043
538.549,271.429,59947
538.4,266.301,59938
538.252,261.171,60049
538.103,256.038,60040
537.954,250.903,59968
552.035,725.052,59968
551.886,720.172,60015
551.738,715.29,60048
551.589,710.405,59956
551.44,705.517,59941
551.292,700.627,59978
551.143,695.734,59944
550.994,690.839,60050
550.846,685.94,60015
550.697,681.04,60011
550.548,676.136,60034
550.4,671.23,60015
550.251,666.321,59973
550.102,661.41,60012
549.954,656.496,60001
549.805,651.579,59953
549.656,646.66,60051
549.508,641.738,60032
549.359,636.813,60061
549.21,631.885,60001
549.062,626.955,60043
548.913,622.023,59962
548.764,617.087,60020
548.616,612.149,59999
548.467,607.208,60028
548.318,602.265,60006
548.17,597.319,59847
548.021,592.37,59993
547.872,587.419,59943
547.724,582.464,60000
547.575,577.508,59949
547.426,572.548,59976
547.278,567.586,59994
547.129,562.621,59992
546.98,557.653,59921
546.832,552.683,59942
546.683,547.71,59957
546.534,542.734,59922
546.386,537.756,60051
546.237,532.774,60007
546.088,527.791,59990
545.94,522.804,59980
545.791,517.815,60148
545.642,512.823,59977
545.494,507.828,59957
545.345,502.83,60063
545.196,497.83,59963
545.048,492.827,59999
544.899,487.822,59962
544.75,482.813,60005
544.602,477.802,59986
544.453,472.788,60013
544.304,467.772,60040
544.156,462.752,59948
544.007,457.73,59963
543.858,452.705,60038
543.71,447.678,60013
543.561,442.648,60005
543.412,437.614,60042
543.264,432.579,59978
543.115,427.54,59961
542.966,422.499,60051
542.818,417.455,60060
542.669,412.408,59955
542.52,407.358,60071
542.372,402.306,60075
542.223,397.25,59991
542.074,392.193,59994
541.926,387.132,59944
541.777,382.068,59932
541.628,377.002,59972
541.48,371.933,59985
541.331,366.861,59975
541.182,361.786,60032
541.034,356.709,60039
540.885,351.629,59961
540.736,346.546,59968
540.588,341.46,59876
540.439,336.371,60042
540.29,331.28,59921
540.142,326.186,59969
539.993,321.089,59942
539.844,315.989,60020
539.696,310.886,59957
539.547,305.781,60044
539.398,300.673,59967
539.25,295.562,60021
539.101,290.448,59916
538.952,285.331,60025
538.804,280.211,59965
538.655,275.089,59966
538.506,269.964,60078
538.358,264.836,59955
538.209,259.705,60068
538.06,254.571,60012
537.912,249.435,59913
537.901,249.068,59944