File: tomke/20240809_Si_on_TiO2/20240809/raw_data/Si_onTiO2_100mA_30mW_30sec_5acc_517nm_bg.txt
Wavelength(nm), Raman shift(cm^-1), Intensity(counts)
525.364,-194.586,78671
525.077,-204.986,79282
524.79,-215.398,79588
524.503,-225.821,80305
524.216,-236.256,80522
523.929,-246.702,80947
523.642,-257.159,83653
523.356,-267.628,95889
523.069,-278.109,131151
522.782,-288.6,153097
522.495,-299.104,156783
522.208,-309.619,156969
521.921,-320.145,155605
521.634,-330.684,154486
521.347,-341.233,153802
521.06,-351.795,152596
520.773,-362.368,150248
520.486,-372.952,147845
520.2,-383.548,146908
519.913,-394.156,145702
519.626,-404.776,144277
519.339,-415.408,142643
519.052,-426.051,140921
518.765,-436.706,138490
518.478,-447.373,136752
518.191,-458.051,135715
517.904,-468.742,135007
517.617,-479.444,133322
517.331,-490.158,132659
517.044,-500.884,131813
516.757,-511.622,131359
516.47,-522.372,130387
516.183,-533.134,130062
515.896,-543.907,129179
515.609,-554.693,128895
515.322,-565.491,127917
515.035,-576.301,127406
514.748,-587.123,127242
514.462,-597.957,125460
514.175,-608.803,125419
513.888,-619.661,124365
513.601,-630.531,123044
513.314,-641.413,121878
513.027,-652.308,121308
512.74,-663.215,120401
512.453,-674.134,119082
512.166,-685.065,117974
511.879,-696.008,116938
511.593,-706.964,116032
511.306,-717.932,114972
511.019,-728.913,114133
510.732,-739.905,112790
510.445,-750.91,111522
510.158,-761.928,110847
509.871,-772.958,109280
509.584,-784,108005
509.297,-795.055,106791
509.01,-806.122,106197
508.723,-817.201,104870
525.152,-202.272,79719
524.865,-212.681,80524
524.578,-223.101,80947
524.291,-233.532,81033
524.004,-243.976,81168
523.717,-254.43,83385
523.43,-264.896,91557
523.143,-275.373,124354
522.857,-285.862,153308
522.57,-296.363,160321
522.283,-306.875,161052
521.996,-317.398,159615
521.709,-327.933,157694
521.422,-338.48,158122
521.135,-349.038,156142
520.848,-359.608,154205
520.561,-370.19,151952
520.274,-380.783,150780
519.988,-391.388,149436
519.701,-402.005,148590
519.414,-412.633,147654
519.127,-423.273,143653
518.84,-433.925,142565
518.553,-444.589,140674
518.266,-455.264,139477
517.979,-465.952,138655
517.692,-476.651,137101
517.405,-487.362,135823
517.119,-498.085,135144
516.832,-508.82,134301
516.545,-519.566,133395
516.258,-530.325,133226
515.971,-541.096,132878
515.684,-551.878,132188
515.397,-562.673,131491
515.11,-573.48,130031
514.823,-584.298,129118
514.536,-595.129,129067
514.249,-605.972,128866
513.963,-616.827,126998
513.676,-627.694,126177
513.389,-638.573,125107
513.102,-649.465,123789
512.815,-660.368,123200
512.528,-671.284,121844
512.241,-682.212,121338
511.954,-693.152,119458
511.667,-704.105,118714
511.38,-715.07,117518
511.094,-726.047,116369
510.807,-737.036,115831
510.52,-748.038,113838
510.233,-759.052,113071
509.946,-770.079,111720
509.659,-781.118,110248
509.372,-792.17,109373
509.085,-803.233,107921
508.798,-814.31,107483
525.227,-199.558,79734
524.94,-209.964,79957
524.653,-220.381,80552
524.366,-230.81,80821
524.079,-241.25,81243
523.792,-251.702,82272
523.505,-262.165,88098
523.218,-272.639,113535
522.931,-283.125,149263
522.644,-293.622,161368
522.358,-304.131,161774
522.071,-314.652,161011
521.784,-325.184,160185
521.497,-335.728,158347
521.21,-346.283,158110
520.923,-356.85,155884
520.636,-367.428,153615
520.349,-378.019,151612
520.062,-388.62,151055
519.775,-399.234,149297
519.489,-409.859,148689
519.202,-420.496,145374
518.915,-431.145,143338
518.628,-441.806,142070
518.341,-452.478,140263
518.054,-463.163,139381
517.767,-473.859,138011
517.48,-484.567,136938
517.193,-495.286,135652
516.906,-506.018,134986
516.62,-516.762,134712
516.333,-527.517,134258
516.046,-538.285,133236
515.759,-549.064,132680
515.472,-559.856,131923
515.185,-570.659,131143
514.898,-581.475,130538
514.611,-592.303,130382
514.324,-603.142,129444
514.037,-613.994,128227
513.751,-624.858,126563
513.464,-635.734,125649
513.177,-646.622,124939
512.89,-657.523,124390
512.603,-668.435,122714
512.316,-679.36,121442
512.029,-690.297,120350
511.742,-701.247,119070
511.455,-712.208,118070
511.168,-723.182,116684
510.881,-734.168,115891
510.595,-745.167,114736
510.308,-756.178,113532
510.021,-767.201,112642
509.734,-778.237,111116
509.447,-789.285,109938
509.16,-800.346,108943
508.873,-811.419,107388
525.301,-196.846,79731
525.015,-207.249,79983
524.728,-217.663,80500
524.441,-228.088,80855
524.154,-238.526,80898
523.867,-248.974,81788
523.58,-259.434,85406
523.293,-269.905,104017
523.006,-280.388,141952
522.719,-290.883,158369
522.432,-301.389,161639
522.146,-311.906,161413
521.859,-322.435,159002
521.572,-332.976,158354
521.285,-343.528,157015
520.998,-354.092,156162
520.711,-364.668,153914
520.424,-375.255,151943
520.137,-385.854,150827
519.85,-396.464,148771
519.563,-407.086,147914
519.277,-417.72,146177
518.99,-428.366,143556
518.703,-439.024,141353
518.416,-449.693,139735
518.129,-460.374,139515
517.842,-471.067,138066
517.555,-481.772,136485
517.268,-492.489,135919
516.981,-503.217,134955
516.694,-513.958,134872
516.407,-524.71,133847
516.121,-535.475,132859
515.834,-546.251,132834
515.547,-557.039,131500
515.26,-567.84,130899
514.973,-578.652,129257
514.686,-589.477,130165
514.399,-600.313,129029
514.112,-611.162,128025
513.825,-622.023,126593
513.538,-632.896,125957
513.252,-643.781,124379
512.965,-654.678,123899
512.678,-665.587,122750
512.391,-676.509,121538
512.104,-687.443,120332
511.817,-698.389,119126
511.53,-709.347,117434
511.243,-720.318,116992
510.956,-731.301,116202
510.669,-742.297,114897
510.383,-753.304,113618
510.096,-764.325,112655
509.809,-775.357,110774
509.522,-786.402,110402
509.235,-797.459,109034
508.948,-808.529,108111
508.661,-819.612,106710
525.089,-204.534,79523
524.802,-214.945,80106
524.516,-225.368,81081
524.229,-235.802,81146
523.942,-246.247,81735
523.655,-256.704,84112
523.368,-267.173,96404
523.081,-277.653,132409
522.794,-288.144,158059
522.507,-298.647,161284
522.22,-309.161,161742
521.933,-319.687,160476
521.647,-330.225,158390
521.36,-340.774,157813
521.073,-351.335,155949
520.786,-361.908,153985
520.499,-372.492,152018
520.212,-383.088,150629
519.925,-393.695,150309
519.638,-404.314,149374
519.351,-414.945,146811
519.064,-425.588,144842
518.778,-436.242,142193
518.491,-446.909,140286
518.204,-457.587,140003
517.917,-468.277,138545
517.63,-478.978,137274
517.343,-489.692,136211
517.056,-500.417,135715
516.769,-511.155,134504
516.482,-521.904,133966
516.195,-532.665,133574
515.909,-543.439,132727
515.622,-554.224,132259
515.335,-565.021,131130
515.048,-575.831,130446
514.761,-586.652,130597
514.474,-597.485,129705
514.187,-608.331,128514
513.9,-619.188,127563
513.613,-630.058,126550
513.326,-640.94,124859
513.04,-651.834,124192
512.753,-662.74,122804
512.466,-673.659,122398
512.179,-684.589,121093
511.892,-695.532,119506
511.605,-706.488,118489
511.318,-717.455,117131
511.031,-728.435,116584
510.744,-739.427,115182
510.457,-750.432,114477
510.17,-761.448,112846
509.884,-772.478,111789
509.597,-783.52,110230
509.31,-794.574,108477
509.023,-805.64,108383
508.736,-816.719,106881
508.661,-819.612,106484