File: tomke/20240809_Si_on_TiO2/20240809/raw_data/Si_onTiO2_80mA_30mW_30sec_5acc_517nm_bg.txt
Wavelength(nm), Raman shift(cm^-1), Intensity(counts)
525.364,-194.586,67573
525.077,-204.986,67844
524.79,-215.398,68209
524.503,-225.821,68058
524.216,-236.256,68224
523.929,-246.702,68309
523.642,-257.159,69295
523.356,-267.628,72696
523.069,-278.109,82974
522.782,-288.6,88587
522.495,-299.104,89674
522.208,-309.619,89342
521.921,-320.145,88878
521.634,-330.684,88399
521.347,-341.233,88018
521.06,-351.795,87818
520.773,-362.368,87177
520.486,-372.952,85987
520.2,-383.548,86167
519.913,-394.156,85583
519.626,-404.776,84859
519.339,-415.408,84470
519.052,-426.051,83742
518.765,-436.706,82762
518.478,-447.373,82260
518.191,-458.051,82261
517.904,-468.742,81733
517.617,-479.444,81085
517.331,-490.158,80638
517.044,-500.884,80496
516.757,-511.622,80363
516.47,-522.372,80304
516.183,-533.134,80297
515.896,-543.907,79842
515.609,-554.693,79885
515.322,-565.491,79127
515.035,-576.301,79221
514.748,-587.123,79043
514.462,-597.957,79138
514.175,-608.803,78615
513.888,-619.661,78419
513.601,-630.531,78002
513.314,-641.413,77995
513.027,-652.308,77517
512.74,-663.215,77165
512.453,-674.134,76541
512.166,-685.065,76677
511.879,-696.008,75857
511.593,-706.964,75837
511.306,-717.932,75674
511.019,-728.913,75251
510.732,-739.905,74927
510.445,-750.91,74483
510.158,-761.928,74530
509.871,-772.958,73978
509.584,-784,73743
509.297,-795.055,73344
509.01,-806.122,73259
508.723,-817.201,72734
525.152,-202.272,68185
524.865,-212.681,68581
524.578,-223.101,68693
524.291,-233.532,68985
524.004,-243.976,68986
523.717,-254.43,69422
523.43,-264.896,72164
523.143,-275.373,82156
522.857,-285.862,89980
522.57,-296.363,92182
522.283,-306.875,92151
521.996,-317.398,91626
521.709,-327.933,91810
521.422,-338.48,91047
521.135,-349.038,90411
520.848,-359.608,89894
520.561,-370.19,88995
520.274,-380.783,88562
519.988,-391.388,87959
519.701,-402.005,87709
519.414,-412.633,87196
519.127,-423.273,86423
518.84,-433.925,85504
518.553,-444.589,84718
518.266,-455.264,84096
517.979,-465.952,83654
517.692,-476.651,83255
517.405,-487.362,83066
517.119,-498.085,83087
516.832,-508.82,82342
516.545,-519.566,82200
516.258,-530.325,82401
515.971,-541.096,81681
515.684,-551.878,81949
515.397,-562.673,81306
515.11,-573.48,81077
514.823,-584.298,81129
514.536,-595.129,81234
514.249,-605.972,80502
513.963,-616.827,80121
513.676,-627.694,79905
513.389,-638.573,79495
513.102,-649.465,79143
512.815,-660.368,78846
512.528,-671.284,78884
512.241,-682.212,78352
511.954,-693.152,77912
511.667,-704.105,77326
511.38,-715.07,77223
511.094,-726.047,77069
510.807,-737.036,76593
510.52,-748.038,76472
510.233,-759.052,76068
509.946,-770.079,75255
509.659,-781.118,75281
509.372,-792.17,75055
509.085,-803.233,74417
508.798,-814.31,74518
525.227,-199.558,69052
524.94,-209.964,68778
524.653,-220.381,69103
524.366,-230.81,69548
524.079,-241.25,69627
523.792,-251.702,69819
523.505,-262.165,71766
523.218,-272.639,80452
522.931,-283.125,92412
522.644,-293.622,95568
522.358,-304.131,96450
522.071,-314.652,96117
521.784,-325.184,94744
521.497,-335.728,94536
521.21,-346.283,94236
520.923,-356.85,93610
520.636,-367.428,92531
520.349,-378.019,91872
520.062,-388.62,91489
519.775,-399.234,91332
519.489,-409.859,90572
519.202,-420.496,89406
518.915,-431.145,88783
518.628,-441.806,88070
518.341,-452.478,87571
518.054,-463.163,86989
517.767,-473.859,86439
517.48,-484.567,85835
517.193,-495.286,85231
516.906,-506.018,85033
516.62,-516.762,85433
516.333,-527.517,84699
516.046,-538.285,84642
515.759,-549.064,84612
515.472,-559.856,84329
515.185,-570.659,84279
514.898,-581.475,83904
514.611,-592.303,83233
514.324,-603.142,83306
514.037,-613.994,82945
513.751,-624.858,82418
513.464,-635.734,81963
513.177,-646.622,81756
512.89,-657.523,81383
512.603,-668.435,81134
512.316,-679.36,80716
512.029,-690.297,80173
511.742,-701.247,80101
511.455,-712.208,79642
511.168,-723.182,79179
510.881,-734.168,78754
510.595,-745.167,78577
510.308,-756.178,77835
510.021,-767.201,77485
509.734,-778.237,77286
509.447,-789.285,76920
509.16,-800.346,76588
508.873,-811.419,76384
525.301,-196.846,69231
525.015,-207.249,69405
524.728,-217.663,69665
524.441,-228.088,69711
524.154,-238.526,69716
523.867,-248.974,70026
523.58,-259.434,71599
523.293,-269.905,78165
523.006,-280.388,91014
522.719,-290.883,96611
522.432,-301.389,97469
522.146,-311.906,97439
521.859,-322.435,96884
521.572,-332.976,96140
521.285,-343.528,95960
520.998,-354.092,95029
520.711,-364.668,93997
520.424,-375.255,93283
520.137,-385.854,93271
519.85,-396.464,92562
519.563,-407.086,92276
519.277,-417.72,91006
518.99,-428.366,89833
518.703,-439.024,89256
518.416,-449.693,88811
518.129,-460.374,87750
517.842,-471.067,88301
517.555,-481.772,87071
517.268,-492.489,86824
516.981,-503.217,86422
516.694,-513.958,86025
516.407,-524.71,86342
516.121,-535.475,85693
515.834,-546.251,85738
515.547,-557.039,85448
515.26,-567.84,85236
514.973,-578.652,85059
514.686,-589.477,84858
514.399,-600.313,84434
514.112,-611.162,84241
513.825,-622.023,83894
513.538,-632.896,83495
513.252,-643.781,82413
512.965,-654.678,82711
512.678,-665.587,82268
512.391,-676.509,81483
512.104,-687.443,81572
511.817,-698.389,80904
511.53,-709.347,80684
511.243,-720.318,80130
510.956,-731.301,79756
510.669,-742.297,79710
510.383,-753.304,79144
510.096,-764.325,78637
509.809,-775.357,77976
509.522,-786.402,77484
509.235,-797.459,77290
508.948,-808.529,77021
508.661,-819.612,76807
525.089,-204.534,68790
524.802,-214.945,69449
524.516,-225.368,69253
524.229,-235.802,69672
523.942,-246.247,69813
523.655,-256.704,70710
523.368,-267.173,75158
523.081,-277.653,87716
522.794,-288.144,94903
522.507,-298.647,97144
522.22,-309.161,96528
521.933,-319.687,96285
521.647,-330.225,95510
521.36,-340.774,95436
521.073,-351.335,94625
520.786,-361.908,93644
520.499,-372.492,93004
520.212,-383.088,92451
519.925,-393.695,91900
519.638,-404.314,91676
519.351,-414.945,90701
519.064,-425.588,89499
518.778,-436.242,88946
518.491,-446.909,88478
518.204,-457.587,87858
517.917,-468.277,87435
517.63,-478.978,86485
517.343,-489.692,86425
517.056,-500.417,86380
516.769,-511.155,85883
516.482,-521.904,85371
516.195,-532.665,85517
515.909,-543.439,85134
515.622,-554.224,84830
515.335,-565.021,84588
515.048,-575.831,84676
514.761,-586.652,84365
514.474,-597.485,84077
514.187,-608.331,83607
513.9,-619.188,83402
513.613,-630.058,83156
513.326,-640.94,82662
513.04,-651.834,81963
512.753,-662.74,81495
512.466,-673.659,81439
512.179,-684.589,80869
511.892,-695.532,80807
511.605,-706.488,80470
511.318,-717.455,79637
511.031,-728.435,79248
510.744,-739.427,79471
510.457,-750.432,78898
510.17,-761.448,77851
509.884,-772.478,77952
509.597,-783.52,77570
509.31,-794.574,76707
509.023,-805.64,76613
508.736,-816.719,76425
508.661,-819.612,76095