File: tomke/20240809_Si_on_TiO2/20240809/raw_data/Si_onTiO2_60mA_30mW_30sec_5acc_545nm_bg.txt
Wavelength(nm), Raman shift(cm^-1), Intensity(counts)
553.364,768.549,91315
553.077,759.175,91703
552.79,749.791,90926
552.503,740.397,91181
552.216,730.994,91041
551.929,721.58,90642
551.642,712.157,91173
551.356,702.724,90835
551.069,693.282,90903
550.782,683.829,90423
550.495,674.367,90331
550.208,664.894,90107
549.921,655.412,89843
549.634,645.92,89691
549.347,636.418,89813
549.06,626.906,90108
548.773,617.385,89931
548.486,607.853,89187
548.2,598.311,88398
547.913,588.759,87744
547.626,579.197,87517
547.339,569.626,87504
547.052,560.044,87090
546.765,550.452,86669
546.478,540.85,86555
546.191,531.238,85949
545.904,521.616,85111
545.617,511.983,84671
545.331,502.341,84546
545.044,492.688,85125
544.757,483.026,84551
544.47,473.353,84727
544.183,463.67,84784
543.896,453.976,84031
543.609,444.273,84074
543.322,434.559,83542
543.035,424.835,83914
542.748,415.1,83196
542.462,405.356,83729
542.175,395.601,83230
541.888,385.836,82829
541.601,376.06,82273
541.314,366.274,82350
541.027,356.478,81845
540.74,346.671,81653
540.453,336.854,80910
540.166,327.026,80323
539.879,317.188,80296
539.593,307.339,80364
539.306,297.48,79711
539.019,287.611,77811
538.732,277.731,77118
538.445,267.84,73062
538.158,257.939,64275
537.871,248.028,61577
537.584,238.105,61108
537.297,228.172,60833
537.01,218.229,60916
536.723,208.275,60840
553.152,761.621,92180
552.865,752.24,92455
552.578,742.849,91760
552.291,733.448,91937
552.004,724.037,91742
551.717,714.616,91286
551.43,705.186,91565
551.143,695.746,91862
550.857,686.296,91293
550.57,676.836,90996
550.283,667.366,90970
549.996,657.887,90597
549.709,648.397,90617
549.422,638.898,90719
549.135,629.389,90332
548.848,619.869,90478
548.561,610.34,90123
548.274,600.801,89043
547.988,591.252,89134
547.701,581.693,88319
547.414,572.124,87552
547.127,562.544,87586
546.84,552.955,87204
546.553,543.356,87245
546.266,533.746,86701
545.979,524.127,86342
545.692,514.497,85033
545.405,504.857,85529
545.119,495.207,85207
544.832,485.547,85241
544.545,475.877,85218
544.258,466.197,85228
543.971,456.506,85003
543.684,446.805,84560
543.397,437.094,84303
543.11,427.373,83904
542.823,417.641,83975
542.536,407.899,84054
542.249,398.147,84097
541.963,388.384,83516
541.676,378.611,83145
541.389,368.828,82966
541.102,359.034,82335
540.815,349.23,82185
540.528,339.416,81864
540.241,329.591,81119
539.954,319.755,80509
539.667,309.91,80822
539.38,300.053,80334
539.094,290.186,78528
538.807,280.309,77643
538.52,270.421,75942
538.233,260.523,66263
537.946,250.614,61870
537.659,240.695,61187
537.372,230.765,61052
537.085,220.824,60873
536.798,210.873,60887
553.227,764.067,91958
552.94,754.688,91690
552.653,745.299,91363
552.366,735.901,91314
552.079,726.493,91253
551.792,717.075,91356
551.505,707.647,90839
551.218,698.21,90861
550.931,688.762,90983
550.644,679.305,90591
550.358,669.838,90242
550.071,660.361,90106
549.784,650.874,90250
549.497,641.377,90043
549.21,631.87,90426
548.923,622.354,90127
548.636,612.827,89541
548.349,603.291,89502
548.062,593.744,88384
547.775,584.187,87901
547.489,574.621,87728
547.202,565.044,87205
546.915,555.458,86990
546.628,545.861,86605
546.341,536.254,86226
546.054,526.637,85623
545.767,517.01,85784
545.48,507.373,85050
545.193,497.726,84646
544.906,488.068,84933
544.62,478.401,84889
544.333,468.723,84959
544.046,459.035,84711
543.759,449.337,84223
543.472,439.628,83804
543.185,429.91,83532
542.898,420.181,83504
542.611,410.441,83544
542.324,400.692,83373
542.037,390.932,83402
541.751,381.162,82556
541.464,371.381,82349
541.177,361.59,110208
540.89,351.789,82236
540.603,341.977,81506
540.316,332.155,80680
540.029,322.322,79813
539.742,312.479,80749
539.455,302.625,80131
539.168,292.761,78857
538.881,282.887,77420
538.595,273.002,76913
538.308,263.106,68293
538.021,253.2,62340
537.734,243.283,61389
537.447,233.356,61011
537.16,223.418,60967
536.873,213.47,60944
553.301,766.512,92823
553.015,757.136,93088
552.728,747.75,92581
552.441,738.354,92153
552.154,728.948,92310
551.867,719.533,92700
551.58,710.107,92195
551.293,700.672,92498
551.006,691.228,92134
550.719,681.773,92275
550.432,672.308,92019
550.146,662.834,91209
549.859,653.35,91003
549.572,643.855,91414
549.285,634.351,90946
548.998,624.837,91010
548.711,615.313,90987
548.424,605.779,90692
548.137,596.235,89930
547.85,586.681,88985
547.563,577.117,88826
547.277,567.543,88440
546.99,557.959,88494
546.703,548.365,88328
546.416,538.761,87660
546.129,529.147,87014
545.842,519.523,86451
545.555,509.888,86210
545.268,500.243,85853
544.981,490.589,85867
544.694,480.924,86012
544.407,471.249,85430
544.121,461.563,89134
543.834,451.868,85288
543.547,442.162,84812
543.26,432.446,84768
542.973,422.72,84821
542.686,412.983,84449
542.399,403.236,84814
542.112,393.479,84123
541.825,383.711,84025
541.538,373.933,83259
541.252,364.145,82869
540.965,354.347,83160
540.678,344.537,83004
540.391,334.718,81679
540.104,324.888,80895
539.817,315.048,81086
539.53,305.197,80906
539.243,295.336,80059
538.956,285.464,78058
538.669,275.582,78193
538.383,265.689,71608
538.096,255.785,63341
537.809,245.871,61330
537.522,235.947,85927
537.235,226.012,60971
536.948,216.066,60938
536.661,206.11,60880
553.089,759.583,92972
552.802,750.199,92282
552.516,740.806,92090
552.229,731.403,92200
551.942,721.99,92174
551.655,712.567,91939
551.368,703.135,92035
551.081,693.692,92165
550.794,684.24,92220
550.507,674.778,91673
550.22,665.306,91396
549.933,655.825,91215
549.647,646.333,90923
549.36,636.832,91244
549.073,627.32,91121
548.786,617.799,91249
548.499,608.267,90533
548.212,598.726,89970
547.925,589.175,89137
547.638,579.613,89022
547.351,570.042,88150
547.064,560.461,88145
546.778,550.869,87812
546.491,541.268,87480
546.204,531.656,87258
545.917,522.034,86389
545.63,512.402,85923
545.343,502.76,86054
545.056,493.108,85580
544.769,483.446,85678
544.482,473.774,85704
544.195,464.091,85513
543.909,454.398,85258
543.622,444.695,85011
543.335,434.981,84476
543.048,425.258,84617
542.761,415.524,84407
542.474,405.78,84502
542.187,396.025,84436
541.9,386.26,83758
541.613,376.485,83007
541.326,366.7,83183
541.04,356.904,83076
540.753,347.097,82672
540.466,337.281,81589
540.179,327.453,80957
539.892,317.616,80991
539.605,307.768,81221
539.318,297.909,80440
539.031,288.04,78597
538.744,278.161,78260
538.457,268.271,73939
538.17,258.37,64670
537.884,248.459,61652
537.597,238.537,61161
537.31,228.605,61104
537.023,218.662,60959
536.736,208.708,61040
536.661,206.11,61096