File: tomke/20240809_Si_on_TiO2/20240809/raw_data/Si_onTiO2_80mA_30mW_30sec_5acc_545nm_bg.txt
Wavelength(nm), Raman shift(cm^-1), Intensity(counts)
553.364,768.549,158993
553.077,759.175,159531
552.79,749.791,158478
552.503,740.397,158205
552.216,730.994,157473
551.929,721.58,157573
551.642,712.157,157391
551.356,702.724,157099
551.069,693.282,157166
550.782,683.829,156416
550.495,674.367,155208
550.208,664.894,153883
549.921,655.412,154109
549.634,645.92,153405
549.347,636.418,153390
549.06,626.906,153221
548.773,617.385,153081
548.486,607.853,151574
548.2,598.311,150879
547.913,588.759,148562
547.626,579.197,146943
547.339,569.626,146266
547.052,560.044,145470
546.765,550.452,144569
546.478,540.85,144804
546.191,531.238,143384
545.904,521.616,141932
545.617,511.983,140332
545.331,502.341,139277
545.044,492.688,139374
544.757,483.026,139091
544.47,473.353,139562
544.183,463.67,138928
543.896,453.976,137491
543.609,444.273,136035
543.322,434.559,135620
543.035,424.835,135412
542.748,415.1,135741
542.462,405.356,135199
542.175,395.601,134563
541.888,385.836,133602
541.601,376.06,132396
541.314,366.274,131453
541.027,356.478,131926
540.74,346.671,130364
540.453,336.854,127993
540.166,327.026,125588
539.879,317.188,125247
539.593,307.339,125712
539.306,297.48,123753
539.019,287.611,117423
538.732,277.731,116676
538.445,267.84,103025
538.158,257.939,73297
537.871,248.028,64014
537.584,238.105,62664
537.297,228.172,62272
537.01,218.229,62344
536.723,208.275,62044
553.152,761.621,158028
552.865,752.24,156881
552.578,742.849,157410
552.291,733.448,156253
552.004,724.037,155756
551.717,714.616,155891
551.43,705.186,155478
551.143,695.746,155271
550.857,686.296,155238
550.57,676.836,153973
550.283,667.366,153418
549.996,657.887,152306
549.709,648.397,152335
549.422,638.898,152044
549.135,629.389,152366
548.848,619.869,151171
548.561,610.34,150793
548.274,600.801,148553
547.988,591.252,147263
547.701,581.693,145978
547.414,572.124,145159
547.127,562.544,144976
546.84,552.955,143579
546.553,543.356,143837
546.266,533.746,141708
545.979,524.127,140579
545.692,514.497,139100
545.405,504.857,138309
545.119,495.207,138191
544.832,485.547,137680
544.545,475.877,138734
544.258,466.197,138026
543.971,456.506,136577
543.684,446.805,135477
543.397,437.094,134557
543.11,427.373,133966
542.823,417.641,134141
542.536,407.899,134499
542.249,398.147,134817
541.963,388.384,132514
541.676,378.611,132048
541.389,368.828,130982
541.102,359.034,130967
540.815,349.23,129089
540.528,339.416,127947
540.241,329.591,125141
539.954,319.755,124117
539.667,309.91,125288
539.38,300.053,123724
539.094,290.186,117951
538.807,280.309,115170
538.52,270.421,109972
538.233,260.523,78844
537.946,250.614,64847
537.659,240.695,62716
537.372,230.765,62335
537.085,220.824,62158
536.798,210.873,62190
553.227,764.067,158661
552.94,754.688,158658
552.653,745.299,158151
552.366,735.901,156752
552.079,726.493,156825
551.792,717.075,156135
551.505,707.647,155925
551.218,698.21,156666
550.931,688.762,155979
550.644,679.305,155261
550.358,669.838,154612
550.071,660.361,153843
549.784,650.874,152342
549.497,641.377,152515
549.21,631.87,153157
548.923,622.354,152833
548.636,612.827,151847
548.349,603.291,149500
548.062,593.744,148341
547.775,584.187,147577
547.489,574.621,145734
547.202,565.044,145123
546.915,555.458,144569
546.628,545.861,144217
546.341,536.254,143378
546.054,526.637,141710
545.767,517.01,140295
545.48,507.373,139020
545.193,497.726,139166
544.906,488.068,138600
544.62,478.401,138824
544.333,468.723,138708
544.046,459.035,137473
543.759,449.337,136970
543.472,439.628,135438
543.185,429.91,134870
542.898,420.181,134584
542.611,410.441,135419
542.324,400.692,134609
542.037,390.932,133215
541.751,381.162,132115
541.464,371.381,131178
541.177,361.59,131345
540.89,351.789,130877
540.603,341.977,129315
540.316,332.155,126356
540.029,322.322,124499
539.742,312.479,124662
539.455,302.625,125538
539.168,292.761,120259
538.881,282.887,115552
538.595,273.002,114300
538.308,263.106,86445
538.021,253.2,66714
537.734,243.283,62935
537.447,233.356,62360
537.16,223.418,62205
536.873,213.47,62214
553.301,766.512,148109
553.015,757.136,148049
552.728,747.75,147892
552.441,738.354,146442
552.154,728.948,146798
551.867,719.533,147069
551.58,710.107,146243
551.293,700.672,146508
551.006,691.228,145988
550.719,681.773,145103
550.432,672.308,144233
550.146,662.834,144132
549.859,653.35,143196
549.572,643.855,143042
549.285,634.351,142551
548.998,624.837,142804
548.711,615.313,142768
548.424,605.779,141556
548.137,596.235,140049
547.85,586.681,137964
547.563,577.117,137614
547.277,567.543,136800
546.99,557.959,136059
546.703,548.365,135802
546.416,538.761,134435
546.129,529.147,132913
545.842,519.523,131888
545.555,509.888,130959
545.268,500.243,129769
544.981,490.589,130766
544.694,480.924,130696
544.407,471.249,130043
544.121,461.563,130126
543.834,451.868,128545
543.547,442.162,127989
543.26,432.446,127153
542.973,422.72,126316
542.686,412.983,127150
542.399,403.236,127427
542.112,393.479,126082
541.825,383.711,125161
541.538,373.933,124269
541.252,364.145,123863
540.965,354.347,124161
540.678,344.537,122130
540.391,334.718,120617
540.104,324.888,118387
539.817,315.048,118284
539.53,305.197,117979
539.243,295.336,115400
538.956,285.464,110725
538.669,275.582,109736
538.383,265.689,91773
538.096,255.785,68413
537.809,245.871,63179
537.522,235.947,62289
537.235,226.012,62057
536.948,216.066,61944
536.661,206.11,61878
553.089,759.583,154837
552.802,750.199,154387
552.516,740.806,153607
552.229,731.403,152054
551.942,721.99,152715
551.655,712.567,152466
551.368,703.135,152451
551.081,693.692,152581
550.794,684.24,152198
550.507,674.778,150791
550.22,665.306,149961
549.933,655.825,148806
549.647,646.333,149166
549.36,636.832,149574
549.073,627.32,149100
548.786,617.799,148989
548.499,608.267,147354
548.212,598.726,145538
547.925,589.175,144072
547.638,579.613,142915
547.351,570.042,142441
547.064,560.461,142368
546.778,550.869,141086
546.491,541.268,140549
546.204,531.656,139664
545.917,522.034,137955
545.63,512.402,136541
545.343,502.76,135062
545.056,493.108,135561
544.769,483.446,135456
544.482,473.774,135871
544.195,464.091,134254
543.909,454.398,133970
543.622,444.695,132900
543.335,434.981,132257
543.048,425.258,131784
542.761,415.524,131899
542.474,405.78,132328
542.187,396.025,131050
541.9,386.26,130160
541.613,376.485,129624
541.326,366.7,128106
541.04,356.904,128369
540.753,347.097,127379
540.466,337.281,125162
540.179,327.453,122883
539.892,317.616,121824
539.605,307.768,122892
539.318,297.909,120557
539.031,288.04,115177
538.744,278.161,114027
538.457,268.271,102538
538.17,258.37,73405
537.884,248.459,64016
537.597,238.537,62570
537.31,228.605,62178
537.023,218.662,62081
536.736,208.708,62069
536.661,206.11,62006