File: tomke/20240809_Si_on_TiO2/20240809/raw_data/Si_onTiO2_0mA_30mW_30sec_3acc_517nm_bg.txt
Wavelength(nm), Raman shift(cm^-1), Intensity(counts)
525.364,-194.586,59691
525.189,-200.915,59994
525.015,-207.249,60019
524.84,-213.586,59960
524.665,-219.928,60066
524.491,-226.275,59984
524.316,-232.625,59981
524.141,-238.98,60011
523.967,-245.339,59975
523.792,-251.702,59964
523.617,-258.069,60011
523.443,-264.441,60044
523.268,-270.817,60031
523.094,-277.197,60055
522.919,-283.581,59988
522.744,-289.97,60078
522.57,-296.363,59948
522.395,-302.76,60033
522.22,-309.161,59968
522.046,-315.567,59994
521.871,-321.977,59987
521.696,-328.392,59978
521.522,-334.81,59977
521.347,-341.233,59927
521.173,-347.66,59999
520.998,-354.092,59885
520.823,-360.528,60013
520.649,-366.968,59999
520.474,-373.413,59971
520.299,-379.861,59981
520.125,-386.315,60032
519.95,-392.772,60005
519.775,-399.234,59973
519.601,-405.7,59949
519.426,-412.171,59991
519.252,-418.646,60013
519.077,-425.125,60036
518.902,-431.609,60013
518.728,-438.096,60037
518.553,-444.589,59973
518.378,-451.086,60002
518.204,-457.587,60051
518.029,-464.092,60008
517.854,-470.602,60092
517.68,-477.116,59991
517.505,-483.635,59933
517.331,-490.158,60042
517.156,-496.685,59998
516.981,-503.217,60083
516.807,-509.754,59987
516.632,-516.294,59935
516.457,-522.839,59931
516.283,-529.389,60029
516.108,-535.943,59994
515.933,-542.501,59997
515.759,-549.064,60022
515.584,-555.632,60036
515.41,-562.203,59912
515.235,-568.78,59972
515.06,-575.36,59946
514.886,-581.945,59991
514.711,-588.535,60005
514.536,-595.129,60014
514.362,-601.728,60025
514.187,-608.331,59970
514.012,-614.938,59999
513.838,-621.55,60005
513.663,-628.167,60013
513.489,-634.788,59965
513.314,-641.413,60037
513.139,-648.043,59940
512.965,-654.678,59964
512.79,-661.317,60005
512.615,-667.961,60021
512.441,-674.609,60005
512.266,-681.261,60032
512.091,-687.919,60037
511.917,-694.58,59928
511.742,-701.247,59976
511.568,-707.917,60022
511.393,-714.593,60041
511.218,-721.273,59979
511.044,-727.957,59973
510.869,-734.646,60060
510.694,-741.34,60067
510.52,-748.038,60042
510.345,-754.741,59952
510.17,-761.448,59978
509.996,-768.161,60043
509.821,-774.877,60004
509.647,-781.598,60044
509.472,-788.324,59937
509.297,-795.055,60023
509.123,-801.79,60000
508.948,-808.529,59952
508.773,-815.274,60001
525.314,-196.394,60103
525.139,-202.724,59958
524.965,-209.059,59969
524.79,-215.398,60009
524.615,-221.741,60002
524.441,-228.088,59989
524.266,-234.44,59954
524.091,-240.796,59969
523.917,-247.156,59973
523.742,-253.52,60029
523.568,-259.889,59993
523.393,-266.262,60019
523.218,-272.639,59897
523.044,-279.02,59983
522.869,-285.406,60008
522.694,-291.796,59963
522.52,-298.19,59974
522.345,-304.589,59960
522.17,-310.991,59972
521.996,-317.398,59941
521.821,-323.81,59905
521.647,-330.225,59958
521.472,-336.645,59948
521.297,-343.069,59991
521.123,-349.498,60008
520.948,-355.93,59974
520.773,-362.368,59961
520.599,-368.809,60028
520.424,-375.255,59893
520.249,-381.705,59988
520.075,-388.159,59904
519.9,-394.618,59905
519.726,-401.081,59994
519.551,-407.548,60005
519.376,-414.02,59959
519.202,-420.496,60036
519.027,-426.977,59988
518.852,-433.462,60019
518.678,-439.951,59934
518.503,-446.445,59955
518.328,-452.943,59966
518.154,-459.445,59996
517.979,-465.952,59993
517.805,-472.463,59967
517.63,-478.978,59939
517.455,-485.498,59906
517.281,-492.023,59989
517.106,-498.551,59953
516.931,-505.084,59960
516.757,-511.622,60012
516.582,-518.164,60014
516.407,-524.71,59953
516.233,-531.261,59999
516.058,-537.816,60029
515.884,-544.376,60030
515.709,-550.94,59935
515.534,-557.509,59986
515.36,-564.082,60047
515.185,-570.659,59977
515.01,-577.241,59892
514.836,-583.828,59941
514.661,-590.419,59933
514.486,-597.014,60009
514.312,-603.614,59985
514.137,-610.218,60027
513.963,-616.827,60011
513.788,-623.44,60037
513.613,-630.058,59922
513.439,-636.68,59974
513.264,-643.307,60020
513.089,-649.939,60098
512.915,-656.574,60024
512.74,-663.215,60011
512.565,-669.86,59974
512.391,-676.509,60114
512.216,-683.163,59966
512.042,-689.821,60010
511.867,-696.485,59986
511.692,-703.152,59929
511.518,-709.824,60029
511.343,-716.501,60040
511.168,-723.182,60054
510.994,-729.868,60024
510.819,-736.558,60097
510.644,-743.253,60051
510.47,-749.953,59955
510.295,-756.657,59897
510.121,-763.366,59990
509.946,-770.079,59884
509.771,-776.797,59979
509.597,-783.52,59921
509.422,-790.247,60007
509.247,-796.978,59994
509.073,-803.715,60030
508.898,-810.456,59913
508.723,-817.201,60014
525.264,-198.202,60058
525.089,-204.534,60058
524.915,-210.87,59955
524.74,-217.21,59893
524.565,-223.554,60048
524.391,-229.903,59975
524.216,-236.256,59996
524.042,-242.613,59985
523.867,-248.974,59988
523.692,-255.34,60027
523.518,-261.709,60017
523.343,-268.084,59919
523.168,-274.462,60026
522.994,-280.844,60051
522.819,-287.231,59930
522.644,-293.622,59991
522.47,-300.018,59946
522.295,-306.417,60092
522.121,-312.821,60003
521.946,-319.23,59934
521.771,-325.642,60026
521.597,-332.059,59957
521.422,-338.48,59960
521.247,-344.905,59974
521.073,-351.335,59966
520.898,-357.769,59971
520.723,-364.208,59996
520.549,-370.65,59950
520.374,-377.097,59980
520.2,-383.548,60071
520.025,-390.004,60022
519.85,-396.464,59974
519.676,-402.928,60006
519.501,-409.397,60011
519.326,-415.87,59927
519.152,-422.348,59964
518.977,-428.829,60026
518.802,-435.315,59971
518.628,-441.806,60003
518.453,-448.301,59979
518.279,-454.8,60053
518.104,-461.304,60015
517.929,-467.812,59955
517.755,-474.324,60009
517.58,-480.841,59960
517.405,-487.362,59989
517.231,-493.887,59972
517.056,-500.417,60003
516.881,-506.952,60016
516.707,-513.491,59978
516.532,-520.034,60055
516.358,-526.582,60057
516.183,-533.134,59951
516.008,-539.69,59982
515.834,-546.251,60051
515.659,-552.817,60041
515.484,-559.386,59902
515.31,-565.961,59985
515.135,-572.539,59938
514.96,-579.123,59949
514.786,-585.71,60049
514.611,-592.303,60024
514.437,-598.899,59983
514.262,-605.5,60020
514.087,-612.106,60014
513.913,-618.716,60048
513.738,-625.331,59982
513.563,-631.95,60055
513.389,-638.573,59961
513.214,-645.201,60067
513.04,-651.834,59963
512.865,-658.471,60023
512.69,-665.113,59967
512.516,-671.759,59928
512.341,-678.41,59990
512.166,-685.065,59998
511.992,-691.725,59993
511.817,-698.389,60035
511.642,-705.058,60048
511.468,-711.731,60052
511.293,-718.409,59976
511.119,-725.092,60054
510.944,-731.779,60024
510.769,-738.471,59920
510.595,-745.167,59985
510.42,-751.868,60019
510.245,-758.573,59997
510.071,-765.283,59998
509.896,-771.998,60079
509.721,-778.717,59994
509.547,-785.441,59943
509.372,-792.17,60022
509.198,-798.903,59917
509.023,-805.64,60028
508.848,-812.383,59933
508.674,-819.13,60048
508.661,-819.612,59966