File: tomke/20240809_Si_on_TiO2/20240809/raw_data/TiO2_flash_50mA_695.txt
Wavelength(nm), Raman shift(cm^-1), Intensity(counts)
702.12,661.884,176516
701.876,656.927,176244
701.632,651.968,177240
701.387,647.005,177464
701.143,642.038,176601
700.899,637.069,177011
700.655,632.095,176958
700.41,627.118,178137
700.166,622.138,178075
699.922,617.154,177606
699.678,612.167,177391
699.433,607.176,176872
699.189,602.182,177144
698.945,597.184,177688
698.701,592.183,176848
698.456,587.178,176763
698.212,582.17,177256
697.968,577.158,176851
697.724,572.143,176890
697.48,567.124,177197
697.235,562.102,176886
696.991,557.076,177030
696.747,552.047,176835
696.503,547.014,178252
696.258,541.978,178040
696.014,536.938,177813
695.77,531.894,177446
695.526,526.847,177469
695.281,521.797,177384
695.037,516.743,177789
694.793,511.685,177858
694.549,506.624,177581
694.304,501.559,178499
694.06,496.491,177638
693.816,491.419,178433
693.572,486.343,178791
693.328,481.264,178235
693.083,476.182,177973
692.839,471.095,178479
692.595,466.006,178604
692.351,460.912,178374
692.106,455.815,178183
691.862,450.715,178495
691.618,445.611,178524
691.374,440.503,178629
691.129,435.391,178066
690.885,430.276,178936
690.641,425.158,178627
690.397,420.036,179721
690.152,414.91,178703
689.908,409.78,178839
689.664,404.647,179160
689.42,399.51,178520
689.175,394.37,178097
688.931,389.226,179170
688.687,384.078,178669
688.443,378.927,177842
688.199,373.772,177225
687.954,368.613,175613
701.94,658.221,182435
701.695,653.262,182531
701.451,648.3,183022
701.207,643.334,183431
700.963,638.365,183309
700.718,633.393,183578
700.474,628.417,183309
700.23,623.438,183288
699.986,618.455,183086
699.741,613.468,183355
699.497,608.478,183649
699.253,603.485,182711
699.009,598.488,183627
698.764,593.488,183617
698.52,588.484,183413
698.276,583.477,183763
698.032,578.466,183461
697.787,573.452,182736
697.543,568.434,183114
697.299,563.412,183715
697.055,558.388,183723
696.811,553.359,183788
696.566,548.327,183424
696.322,543.292,183272
696.078,538.253,183347
695.834,533.21,183225
695.589,528.164,184074
695.345,523.115,184576
695.101,518.061,183149
694.857,513.005,183389
694.612,507.944,184203
694.368,502.881,183919
694.124,497.813,184670
693.88,492.742,184255
693.635,487.668,184145
693.391,482.59,184043
693.147,477.508,184099
692.903,472.423,184420
692.659,467.334,184603
692.414,462.241,184455
692.17,457.145,184111
691.926,452.046,184525
691.682,446.942,185100
691.437,441.836,184684
691.193,436.725,184013
690.949,431.611,184476
690.705,426.493,184755
690.46,421.372,185677
690.216,416.247,184964
689.972,411.119,184518
689.728,405.986,184808
689.483,400.851,183686
689.239,395.711,185554
688.995,390.568,185537
688.751,385.421,184943
688.506,380.271,184332
688.262,375.117,183549
688.018,369.959,182616
702.003,659.514,184283
701.759,654.556,183643
701.515,649.595,184180
701.271,644.63,184041
701.026,639.662,184880
700.782,634.69,184834
700.538,629.715,184755
700.294,624.737,184948
700.049,619.755,184556
699.805,614.769,184484
699.561,609.78,184753
699.317,604.788,184088
699.072,599.792,183909
698.828,594.793,184814
698.584,589.79,184692
698.34,584.783,184463
698.095,579.773,184218
697.851,574.76,185248
697.607,569.743,183919
697.363,564.723,184422
697.118,559.699,183634
696.874,554.671,184093
696.63,549.64,183776
696.386,544.606,184439
696.142,539.568,185119
695.897,534.526,183815
695.653,529.481,184805
695.409,524.432,185456
695.165,519.38,185865
694.92,514.324,185240
694.676,509.265,185809
694.432,504.202,184859
694.188,499.135,184592
693.943,494.065,185734
693.699,488.992,186374
693.455,483.915,185384
693.211,478.834,184804
692.966,473.75,185262
692.722,468.662,185059
692.478,463.57,185576
692.234,458.475,185729
691.99,453.376,185050
691.745,448.274,185446
691.501,443.168,185198
691.257,438.059,186068
691.013,432.946,186252
690.768,427.829,186530
690.524,422.708,185352
690.28,417.584,185638
690.036,412.457,186671
689.791,407.326,186646
689.547,402.191,185989
689.303,397.052,186171
689.059,391.91,185465
688.814,386.764,186666
688.57,381.615,185316
688.326,376.462,184839
688.082,371.305,183126
702.067,660.806,190811
701.823,655.85,191326
701.578,650.889,190730
701.334,645.926,191096
701.09,640.958,192093
700.846,635.988,191640
700.602,631.014,190463
700.357,626.036,191777
700.113,621.055,190750
699.869,616.07,191264
699.625,611.082,190802
699.38,606.091,191537
699.136,601.096,191709
698.892,596.097,191945
698.648,591.095,190957
698.403,586.09,192084
698.159,581.081,191661
697.915,576.068,191509
697.671,571.052,191413
697.426,566.033,191326
697.182,561.01,192129
696.938,555.983,191640
696.694,550.953,192157
696.449,545.919,191934
696.205,540.882,192621
695.961,535.842,192232
695.717,530.797,192046
695.473,525.75,191950
695.228,520.698,191769
694.984,515.643,192335
694.74,510.585,192761
694.496,505.523,192285
694.251,500.457,192141
694.007,495.388,192454
693.763,490.316,192114
693.519,485.239,192939
693.274,480.16,192263
693.03,475.076,192481
692.786,469.989,193363
692.542,464.899,193130
692.297,459.805,192161
692.053,454.707,193733
691.809,449.605,192885
691.565,444.5,193608
691.321,439.392,193370
691.076,434.28,193164
690.832,429.164,193454
690.588,424.045,193162
690.344,418.921,192832
690.099,413.795,193155
689.855,408.665,194105
689.611,403.531,194341
689.367,398.393,193476
689.122,393.252,193401
688.878,388.107,194328
688.634,382.958,193695
688.39,377.806,192394
688.145,372.651,191423
687.901,367.491,189428
701.886,657.143,189270
701.642,652.184,188595
701.398,647.221,189730
701.154,642.254,189945
700.909,637.285,189334
700.665,632.311,188821
700.421,627.335,189199
700.177,622.355,188611
699.933,617.371,189044
699.688,612.384,189179
699.444,607.393,189556
699.2,602.399,188568
698.956,597.402,189341
698.711,592.4,188404
698.467,587.396,189412
698.223,582.388,189205
697.979,577.376,188172
697.734,572.361,189397
697.49,567.342,189275
697.246,562.32,189957
697.002,557.295,190077
696.757,552.266,189341
696.513,547.233,190392
696.269,542.197,190203
696.025,537.157,188915
695.78,532.114,190217
695.536,527.067,189479
695.292,522.016,189452
695.048,516.962,189328
694.804,511.905,189903
694.559,506.844,189770
694.315,501.779,190426
694.071,496.711,189445
693.827,491.639,190173
693.582,486.564,190330
693.338,481.485,190681
693.094,476.403,190113
692.85,471.317,190402
692.605,466.227,190999
692.361,461.134,190291
692.117,456.037,190264
691.873,450.937,190817
691.628,445.833,189352
691.384,440.725,190257
691.14,435.614,190552
690.896,430.499,190548
690.652,425.38,191257
690.407,420.258,191079
690.163,415.133,190090
689.919,410.003,190830
689.675,404.87,191419
689.43,399.734,190704
689.186,394.593,190843
688.942,389.449,191256
688.698,384.302,190385
688.453,379.151,189651
688.209,373.996,189283
687.965,368.837,186998
687.901,367.491,187130