File: tomke/20240809/raw_data/Si_onTiO2_100mA_30mW_30sec_5acc_545nm.txt
Wavelength(nm), Raman shift(cm^-1), Intensity(counts)
553.364,768.549,243885
553.077,759.175,245045
552.79,749.791,243738
552.503,740.397,242032
552.216,730.994,241035
551.929,721.58,241535
551.642,712.157,240569
551.356,702.724,240054
551.069,693.282,239419
550.782,683.829,238370
550.495,674.367,238452
550.208,664.894,234450
549.921,655.412,233295
549.634,645.92,233428
549.347,636.418,233118
549.06,626.906,233047
548.773,617.385,232433
548.486,607.853,230230
548.2,598.311,227408
547.913,588.759,224038
547.626,579.197,221295
547.339,569.626,219656
547.052,560.044,219249
546.765,550.452,218315
546.478,540.85,216711
546.191,531.238,215990
545.904,521.616,212641
545.617,511.983,212392
545.331,502.341,218630
545.044,492.688,214100
544.757,483.026,209731
544.47,473.353,208910
544.183,463.67,207376
543.896,453.976,205040
543.609,444.273,202668
543.322,434.559,200580
543.035,424.835,200809
542.748,415.1,201383
542.462,405.356,200720
542.175,395.601,199418
541.888,385.836,197014
541.601,376.06,195142
541.314,366.274,194459
541.027,356.478,193570
540.74,346.671,193087
540.453,336.854,187579
540.166,327.026,183058
539.879,317.188,183442
539.593,307.339,184214
539.306,297.48,180080
539.019,287.611,169208
538.732,277.731,167158
538.445,267.84,141514
538.158,257.939,85354
537.871,248.028,67309
537.584,238.105,64548
537.297,228.172,63867
537.01,218.229,63647
536.723,208.275,63501
553.152,761.621,255984
552.865,752.24,253931
552.578,742.849,252191
552.291,733.448,253026
552.004,724.037,249866
551.717,714.616,251558
551.43,705.186,250433
551.143,695.746,249878
550.857,686.296,249035
550.57,676.836,246870
550.283,667.366,245603
549.996,657.887,243544
549.709,648.397,242903
549.422,638.898,243285
549.135,629.389,243136
548.848,619.869,242085
548.561,610.34,241504
548.274,600.801,237734
547.988,591.252,234022
547.701,581.693,231563
547.414,572.124,229617
547.127,562.544,228091
546.84,552.955,228081
546.553,543.356,225692
546.266,533.746,224214
545.979,524.127,222303
545.692,514.497,220638
545.405,504.857,224778
545.119,495.207,224385
544.832,485.547,218774
544.545,475.877,218230
544.258,466.197,216776
543.971,456.506,214867
543.684,446.805,211292
543.397,437.094,209036
543.11,427.373,209027
542.823,417.641,208996
542.536,407.899,209562
542.249,398.147,208427
541.963,388.384,205921
541.676,378.611,203954
541.389,368.828,202405
541.102,359.034,201992
540.815,349.23,200545
540.528,339.416,196239
540.241,329.591,191242
539.954,319.755,188965
539.667,309.91,190560
539.38,300.053,189398
539.094,290.186,177945
538.807,280.309,172211
538.52,270.421,161277
538.233,260.523,99759
537.946,250.614,69857
537.659,240.695,64933
537.372,230.765,64209
537.085,220.824,63819
536.798,210.873,63736
553.227,764.067,266154
552.94,754.688,265910
552.653,745.299,263817
552.366,735.901,261195
552.079,726.493,260962
551.792,717.075,261291
551.505,707.647,261215
551.218,698.21,261221
550.931,688.762,259620
550.644,679.305,258401
550.358,669.838,256495
550.071,660.361,254189
549.784,650.874,253911
549.497,641.377,251961
549.21,631.87,253193
548.923,622.354,253285
548.636,612.827,251193
548.349,603.291,248190
548.062,593.744,245078
547.775,584.187,241459
547.489,574.621,239536
547.202,565.044,237964
546.915,555.458,237685
546.628,545.861,237093
546.341,536.254,234093
546.054,526.637,232031
545.767,517.01,229016
545.48,507.373,232537
545.193,497.726,235904
544.906,488.068,228403
544.62,478.401,226883
544.333,468.723,225961
544.046,459.035,224044
543.759,449.337,221001
543.472,439.628,219064
543.185,429.91,216456
542.898,420.181,216716
542.611,410.441,217453
542.324,400.692,217106
542.037,390.932,215058
541.751,381.162,212766
541.464,371.381,210125
541.177,361.59,209593
540.89,351.789,208336
540.603,341.977,206092
540.316,332.155,200924
540.029,322.322,196200
539.742,312.479,198185
539.455,302.625,197553
539.168,292.761,188878
538.881,282.887,178482
538.595,273.002,175467
538.308,263.106,118285
538.021,253.2,74177
537.734,243.283,65905
537.447,233.356,64455
537.16,223.418,64087
536.873,213.47,63842
553.301,766.512,268167
553.015,757.136,266706
552.728,747.75,265121
552.441,738.354,262961
552.154,728.948,262217
551.867,719.533,262091
551.58,710.107,262135
551.293,700.672,260749
551.006,691.228,261604
550.719,681.773,259934
550.432,672.308,257677
550.146,662.834,255050
549.859,653.35,253680
549.572,643.855,253158
549.285,634.351,252984
548.998,624.837,253145
548.711,615.313,251717
548.424,605.779,249281
548.137,596.235,246730
547.85,586.681,242550
547.563,577.117,240737
547.277,567.543,238696
546.99,557.959,238066
546.703,548.365,237908
546.416,538.761,236187
546.129,529.147,232638
545.842,519.523,230079
545.555,509.888,230306
545.268,500.243,236712
544.981,490.589,230781
544.694,480.924,227728
544.407,471.249,226584
544.121,461.563,224138
543.834,451.868,222200
543.547,442.162,218727
543.26,432.446,217936
542.973,422.72,218192
542.686,412.983,217684
542.399,403.236,218053
542.112,393.479,215928
541.825,383.711,212604
541.538,373.933,211278
541.252,364.145,210365
540.965,354.347,210345
540.678,344.537,207264
540.391,334.718,201536
540.104,324.888,197484
539.817,315.048,197905
539.53,305.197,198178
539.243,295.336,191824
538.956,285.464,180127
538.669,275.582,178840
538.383,265.689,137566
538.096,255.785,80442
537.809,245.871,66975
537.522,235.947,64717
537.235,226.012,64154
536.948,216.066,63901
536.661,206.11,63872
553.089,759.583,265486
552.802,750.199,262881
552.516,740.806,262678
552.229,731.403,261785
551.942,721.99,261182
551.655,712.567,261548
551.368,703.135,260705
551.081,693.692,259508
550.794,684.24,259151
550.507,674.778,257019
550.22,665.306,254617
549.933,655.825,253651
549.647,646.333,253101
549.36,636.832,251654
549.073,627.32,253381
548.786,617.799,251237
548.499,608.267,248521
548.212,598.726,245567
547.925,589.175,243420
547.638,579.613,239568
547.351,570.042,237370
547.064,560.461,236395
546.778,550.869,236572
546.491,541.268,234861
546.204,531.656,233559
545.917,522.034,230186
545.63,512.402,228386
545.343,502.76,234822
545.056,493.108,230202
544.769,483.446,226626
544.482,473.774,226029
544.195,464.091,223423
543.909,454.398,221517
543.622,444.695,218953
543.335,434.981,216816
543.048,425.258,216102
542.761,415.524,217099
542.474,405.78,217436
542.187,396.025,215232
541.9,386.26,212177
541.613,376.485,210820
541.326,366.7,210278
541.04,356.904,208194
540.753,347.097,207801
540.466,337.281,202603
540.179,327.453,197303
539.892,317.616,196422
539.605,307.768,197954
539.318,297.909,194241
539.031,288.04,181372
538.744,278.161,178523
538.457,268.271,154550
538.17,258.37,90265
537.884,248.459,68324
537.597,238.537,64778
537.31,228.605,64262
537.023,218.662,63988
536.736,208.708,63704
536.661,206.11,63861