File: tomke/20240809/raw_data/Si_onTiO2_0mA_30mW_30sec_5acc_517nm.txt
Wavelength(nm), Raman shift(cm^-1), Intensity(counts)
525.364,-194.586,59823
525.077,-204.986,60001
524.79,-215.398,60025
524.503,-225.821,59977
524.216,-236.256,59981
523.929,-246.702,60003
523.642,-257.159,60038
523.356,-267.628,60108
523.069,-278.109,60132
522.782,-288.6,60137
522.495,-299.104,60280
522.208,-309.619,60279
521.921,-320.145,60154
521.634,-330.684,60077
521.347,-341.233,60122
521.06,-351.795,60159
520.773,-362.368,60149
520.486,-372.952,60113
520.2,-383.548,60009
519.913,-394.156,60103
519.626,-404.776,60118
519.339,-415.408,60067
519.052,-426.051,59994
518.765,-436.706,60063
518.478,-447.373,59977
518.191,-458.051,60017
517.904,-468.742,60061
517.617,-479.444,60065
517.331,-490.158,60073
517.044,-500.884,60168
516.757,-511.622,60490
516.47,-522.372,64798
516.183,-533.134,60206
515.896,-543.907,60014
515.609,-554.693,59935
515.322,-565.491,60026
515.035,-576.301,60045
514.748,-587.123,60052
514.462,-597.957,60085
514.175,-608.803,60004
513.888,-619.661,60022
513.601,-630.531,60072
513.314,-641.413,60053
513.027,-652.308,59995
512.74,-663.215,60009
512.453,-674.134,60043
512.166,-685.065,59972
511.879,-696.008,59991
511.593,-706.964,60054
511.306,-717.932,59965
511.019,-728.913,60049
510.732,-739.905,60029
510.445,-750.91,59972
510.158,-761.928,60014
509.871,-772.958,60024
509.584,-784,59996
509.297,-795.055,59997
509.01,-806.122,59925
508.723,-817.201,59990
525.152,-202.272,60013
524.865,-212.681,60075
524.578,-223.101,59978
524.291,-233.532,60001
524.004,-243.976,59928
523.717,-254.43,59970
523.43,-264.896,59971
523.143,-275.373,60155
522.857,-285.862,60145
522.57,-296.363,60207
522.283,-306.875,60202
521.996,-317.398,60246
521.709,-327.933,60102
521.422,-338.48,60121
521.135,-349.038,60015
520.848,-359.608,60129
520.561,-370.19,60115
520.274,-380.783,60075
519.988,-391.388,60099
519.701,-402.005,60084
519.414,-412.633,60012
519.127,-423.273,60064
518.84,-433.925,60073
518.553,-444.589,60022
518.266,-455.264,60040
517.979,-465.952,60046
517.692,-476.651,60120
517.405,-487.362,59991
517.119,-498.085,60057
516.832,-508.82,60188
516.545,-519.566,66658
516.258,-530.325,60312
515.971,-541.096,60120
515.684,-551.878,60037
515.397,-562.673,60035
515.11,-573.48,59995
514.823,-584.298,60106
514.536,-595.129,59990
514.249,-605.972,59951
513.963,-616.827,60063
513.676,-627.694,59938
513.389,-638.573,60063
513.102,-649.465,60028
512.815,-660.368,60069
512.528,-671.284,60055
512.241,-682.212,60034
511.954,-693.152,59987
511.667,-704.105,60036
511.38,-715.07,59955
511.094,-726.047,60007
510.807,-737.036,60003
510.52,-748.038,59938
510.233,-759.052,60019
509.946,-770.079,59983
509.659,-781.118,59985
509.372,-792.17,59935
509.085,-803.233,59986
508.798,-814.31,60015
525.227,-199.558,59952
524.94,-209.964,60004
524.653,-220.381,59953
524.366,-230.81,59996
524.079,-241.25,59962
523.792,-251.702,60035
523.505,-262.165,59973
523.218,-272.639,60082
522.931,-283.125,60114
522.644,-293.622,60282
522.358,-304.131,60260
522.071,-314.652,60129
521.784,-325.184,60189
521.497,-335.728,60163
521.21,-346.283,60067
520.923,-356.85,60117
520.636,-367.428,60099
520.349,-378.019,60046
520.062,-388.62,60035
519.775,-399.234,60037
519.489,-409.859,60048
519.202,-420.496,60030
518.915,-431.145,60116
518.628,-441.806,60060
518.341,-452.478,60053
518.054,-463.163,60029
517.767,-473.859,60032
517.48,-484.567,59970
517.193,-495.286,60064
516.906,-506.018,60102
516.62,-516.762,63274
516.333,-527.517,60867
516.046,-538.285,60110
515.759,-549.064,60111
515.472,-559.856,60040
515.185,-570.659,60058
514.898,-581.475,60061
514.611,-592.303,59975
514.324,-603.142,60107
514.037,-613.994,60089
513.751,-624.858,60019
513.464,-635.734,59903
513.177,-646.622,59991
512.89,-657.523,60041
512.603,-668.435,60018
512.316,-679.36,59920
512.029,-690.297,60043
511.742,-701.247,60056
511.455,-712.208,60022
511.168,-723.182,59969
510.881,-734.168,60012
510.595,-745.167,60073
510.308,-756.178,59973
510.021,-767.201,60010
509.734,-778.237,60001
509.447,-789.285,60018
509.16,-800.346,59942
508.873,-811.419,60095
525.301,-196.846,60087
525.015,-207.249,60028
524.728,-217.663,59996
524.441,-228.088,60060
524.154,-238.526,60018
523.867,-248.974,60013
523.58,-259.434,59965
523.293,-269.905,60065
523.006,-280.388,60139
522.719,-290.883,60159
522.432,-301.389,60192
522.146,-311.906,60205
521.859,-322.435,60164
521.572,-332.976,60113
521.285,-343.528,60203
520.998,-354.092,60140
520.711,-364.668,60089
520.424,-375.255,60130
520.137,-385.854,60101
519.85,-396.464,60099
519.563,-407.086,60011
519.277,-417.72,60056
518.99,-428.366,59968
518.703,-439.024,59982
518.416,-449.693,60109
518.129,-460.374,60053
517.842,-471.067,59994
517.555,-481.772,60056
517.268,-492.489,60080
516.981,-503.217,60077
516.694,-513.958,60794
516.407,-524.71,62323
516.121,-535.475,60205
515.834,-546.251,60053
515.547,-557.039,60046
515.26,-567.84,59986
514.973,-578.652,59967
514.686,-589.477,60043
514.399,-600.313,59950
514.112,-611.162,60073
513.825,-622.023,60074
513.538,-632.896,60102
513.252,-643.781,60047
512.965,-654.678,60060
512.678,-665.587,60002
512.391,-676.509,60010
512.104,-687.443,60060
511.817,-698.389,60002
511.53,-709.347,59973
511.243,-720.318,59972
510.956,-731.301,59932
510.669,-742.297,59981
510.383,-753.304,59988
510.096,-764.325,59990
509.809,-775.357,59886
509.522,-786.402,60001
509.235,-797.459,60043
508.948,-808.529,59988
508.661,-819.612,60009
525.089,-204.534,59899
524.802,-214.945,60050
524.516,-225.368,60035
524.229,-235.802,59908
523.942,-246.247,59986
523.655,-256.704,60033
523.368,-267.173,60034
523.081,-277.653,60086
522.794,-288.144,60116
522.507,-298.647,60216
522.22,-309.161,60119
521.933,-319.687,60201
521.647,-330.225,60119
521.36,-340.774,60041
521.073,-351.335,60092
520.786,-361.908,60202
520.499,-372.492,60139
520.212,-383.088,60053
519.925,-393.695,59959
519.638,-404.314,59996
519.351,-414.945,60036
519.064,-425.588,60049
518.778,-436.242,60081
518.491,-446.909,60024
518.204,-457.587,59980
517.917,-468.277,60048
517.63,-478.978,59994
517.343,-489.692,60057
517.056,-500.417,60109
516.769,-511.155,60290
516.482,-521.904,65478
516.195,-532.665,60209
515.909,-543.439,60032
515.622,-554.224,60052
515.335,-565.021,60048
515.048,-575.831,60018
514.761,-586.652,59964
514.474,-597.485,60001
514.187,-608.331,60008
513.9,-619.188,60011
513.613,-630.058,60058
513.326,-640.94,60000
513.04,-651.834,60011
512.753,-662.74,59998
512.466,-673.659,59949
512.179,-684.589,60042
511.892,-695.532,59996
511.605,-706.488,60012
511.318,-717.455,59956
511.031,-728.435,60010
510.744,-739.427,59934
510.457,-750.432,59977
510.17,-761.448,59977
509.884,-772.478,60077
509.597,-783.52,59991
509.31,-794.574,60007
509.023,-805.64,60027
508.736,-816.719,59991
508.661,-819.612,60050