File: tomke/20240809/raw_data/Si_onTiO2_70mA_30mW_30sec_5acc_545nm.txt
Wavelength(nm), Raman shift(cm^-1), Intensity(counts)
553.364,768.549,201525
553.077,759.175,201724
552.79,749.791,200421
552.503,740.397,199071
552.216,730.994,198774
551.929,721.58,197829
551.642,712.157,197653
551.356,702.724,198261
551.069,693.282,196867
550.782,683.829,197008
550.495,674.367,195437
550.208,664.894,194154
549.921,655.412,193267
549.634,645.92,192240
549.347,636.418,193289
549.06,626.906,193202
548.773,617.385,192331
548.486,607.853,190383
548.2,598.311,188859
547.913,588.759,186579
547.626,579.197,184247
547.339,569.626,182867
547.052,560.044,183158
546.765,550.452,181983
546.478,540.85,180739
546.191,531.238,180187
545.904,521.616,178661
545.617,511.983,177391
545.331,502.341,186529
545.044,492.688,181113
544.757,483.026,177230
544.47,473.353,175295
544.183,463.67,174821
543.896,453.976,172846
543.609,444.273,170429
543.322,434.559,168428
543.035,424.835,169513
542.748,415.1,169051
542.462,405.356,168199
542.175,395.601,167733
541.888,385.836,166556
541.601,376.06,163925
541.314,366.274,164616
541.027,356.478,164547
540.74,346.671,162749
540.453,336.854,160004
540.166,327.026,155250
539.879,317.188,155634
539.593,307.339,156604
539.306,297.48,153737
539.019,287.611,144758
538.732,277.731,142720
538.445,267.84,124032
538.158,257.939,79395
537.871,248.028,65670
537.584,238.105,63491
537.297,228.172,63048
537.01,218.229,62914
536.723,208.275,62736
553.152,761.621,204652
552.865,752.24,204347
552.578,742.849,203471
552.291,733.448,202535
552.004,724.037,202165
551.717,714.616,201598
551.43,705.186,201526
551.143,695.746,202221
550.857,686.296,201266
550.57,676.836,199647
550.283,667.366,198047
549.996,657.887,197367
549.709,648.397,197491
549.422,638.898,196747
549.135,629.389,197009
548.848,619.869,196479
548.561,610.34,194583
548.274,600.801,193609
547.988,591.252,189886
547.701,581.693,189033
547.414,572.124,186349
547.127,562.544,187176
546.84,552.955,185845
546.553,543.356,184734
546.266,533.746,183230
545.979,524.127,180971
545.692,514.497,182064
545.405,504.857,186604
545.119,495.207,186999
544.832,485.547,180506
544.545,475.877,179158
544.258,466.197,178133
543.971,456.506,176778
543.684,446.805,173421
543.397,437.094,172300
543.11,427.373,171343
542.823,417.641,171836
542.536,407.899,172086
542.249,398.147,170949
541.963,388.384,170238
541.676,378.611,167903
541.389,368.828,167252
541.102,359.034,166862
540.815,349.23,166101
540.528,339.416,162742
540.241,329.591,159350
539.954,319.755,157459
539.667,309.91,159017
539.38,300.053,157881
539.094,290.186,149418
538.807,280.309,144668
538.52,270.421,136140
538.233,260.523,88922
537.946,250.614,67444
537.659,240.695,64043
537.372,230.765,63219
537.085,220.824,62864
536.798,210.873,62742
553.227,764.067,204626
552.94,754.688,203326
552.653,745.299,203029
552.366,735.901,201617
552.079,726.493,201052
551.792,717.075,199896
551.505,707.647,200458
551.218,698.21,201221
550.931,688.762,199898
550.644,679.305,198854
550.358,669.838,197784
550.071,660.361,195854
549.784,650.874,195885
549.497,641.377,195537
549.21,631.87,195535
548.923,622.354,195365
548.636,612.827,194386
548.349,603.291,191806
548.062,593.744,189820
547.775,584.187,187578
547.489,574.621,185569
547.202,565.044,185929
546.915,555.458,184525
546.628,545.861,183698
546.341,536.254,182995
546.054,526.637,181119
545.767,517.01,179934
545.48,507.373,183397
545.193,497.726,188910
544.906,488.068,180483
544.62,478.401,177812
544.333,468.723,177174
544.046,459.035,175556
543.759,449.337,172746
543.472,439.628,171278
543.185,429.91,170862
542.898,420.181,170715
542.611,410.441,171733
542.324,400.692,170410
542.037,390.932,168618
541.751,381.162,167491
541.464,371.381,166238
541.177,361.59,166331
540.89,351.789,165984
540.603,341.977,163966
540.316,332.155,159954
540.029,322.322,157423
539.742,312.479,157360
539.455,302.625,157765
539.168,292.761,151759
538.881,282.887,144392
538.595,273.002,142144
538.308,263.106,100437
538.021,253.2,70098
537.734,243.283,64252
537.447,233.356,63313
537.16,223.418,63005
536.873,213.47,62808
553.301,766.512,193799
553.015,757.136,192620
552.728,747.75,192110
552.441,738.354,191332
552.154,728.948,191206
551.867,719.533,190201
551.58,710.107,189989
551.293,700.672,190200
551.006,691.228,188631
550.719,681.773,188118
550.432,672.308,187502
550.146,662.834,186739
549.859,653.35,185002
549.572,643.855,185383
549.285,634.351,185144
548.998,624.837,185308
548.711,615.313,184196
548.424,605.779,182558
548.137,596.235,180732
547.85,586.681,177891
547.563,577.117,176796
547.277,567.543,176284
546.99,557.959,175478
546.703,548.365,174754
546.416,538.761,174274
546.129,529.147,172101
545.842,519.523,170847
545.555,509.888,172519
545.268,500.243,179952
544.981,490.589,172685
544.694,480.924,169544
544.407,471.249,168768
544.121,461.563,167086
543.834,451.868,165070
543.547,442.162,163863
543.26,432.446,162974
542.973,422.72,163099
542.686,412.983,163451
542.399,403.236,162303
542.112,393.479,161823
541.825,383.711,159682
541.538,373.933,158366
541.252,364.145,157411
540.965,354.347,157690
540.678,344.537,156095
540.391,334.718,152806
540.104,324.888,149843
539.817,315.048,149660
539.53,305.197,150748
539.243,295.336,146685
538.956,285.464,138868
538.669,275.582,138312
538.383,265.689,109942
538.096,255.785,73419
537.809,245.871,64683
537.522,235.947,63106
537.235,226.012,62860
536.948,216.066,62725
536.661,206.11,62631
553.089,759.583,194364
552.802,750.199,192426
552.516,740.806,191555
552.229,731.403,191098
551.942,721.99,191324
551.655,712.567,191034
551.368,703.135,190265
551.081,693.692,190334
550.794,684.24,189400
550.507,674.778,188203
550.22,665.306,187561
549.933,655.825,185572
549.647,646.333,186210
549.36,636.832,185107
549.073,627.32,185658
548.786,617.799,184754
548.499,608.267,183462
548.212,598.726,181273
547.925,589.175,178967
547.638,579.613,176731
547.351,570.042,176057
547.064,560.461,176169
546.778,550.869,175545
546.491,541.268,174284
546.204,531.656,172600
545.917,522.034,171773
545.63,512.402,171782
545.343,502.76,180063
545.056,493.108,175174
544.769,483.446,169314
544.482,473.774,169140
544.195,464.091,167154
543.909,454.398,166153
543.622,444.695,164138
543.335,434.981,163258
543.048,425.258,163086
542.761,415.524,163031
542.474,405.78,162809
542.187,396.025,161832
541.9,386.26,160719
541.613,376.485,159004
541.326,366.7,158466
541.04,356.904,158055
540.753,347.097,156297
540.466,337.281,153448
540.179,327.453,151189
539.892,317.616,150120
539.605,307.768,151215
539.318,297.909,148324
539.031,288.04,140663
538.744,278.161,138064
538.457,268.271,121796
538.17,258.37,79408
537.884,248.459,65521
537.597,238.537,63322
537.31,228.605,62926
537.023,218.662,62721
536.736,208.708,62618
536.661,206.11,62622