File: tomke/20240809/raw_data/Si_onTiO2_40mA_30mW_30sec_5acc_545nm_bg.txt
Wavelength(nm), Raman shift(cm^-1), Intensity(counts)
553.364,768.549,76282
553.077,759.175,76377
552.79,749.791,76530
552.503,740.397,76248
552.216,730.994,76156
551.929,721.58,76161
551.642,712.157,76230
551.356,702.724,76038
551.069,693.282,76066
550.782,683.829,75872
550.495,674.367,76086
550.208,664.894,75800
549.921,655.412,75379
549.634,645.92,75226
549.347,636.418,75546
549.06,626.906,75531
548.773,617.385,75381
548.486,607.853,75130
548.2,598.311,74923
547.913,588.759,74310
547.626,579.197,74319
547.339,569.626,74174
547.052,560.044,73852
546.765,550.452,73887
546.478,540.85,73631
546.191,531.238,73526
545.904,521.616,72876
545.617,511.983,72773
545.331,502.341,72793
545.044,492.688,72306
544.757,483.026,72880
544.47,473.353,72608
544.183,463.67,72572
543.896,453.976,72320
543.609,444.273,72255
543.322,434.559,72101
543.035,424.835,71970
542.748,415.1,72028
542.462,405.356,72106
542.175,395.601,71705
541.888,385.836,71550
541.601,376.06,71552
541.314,366.274,71161
541.027,356.478,70963
540.74,346.671,71076
540.453,336.854,70595
540.166,327.026,70408
539.879,317.188,70434
539.593,307.339,70540
539.306,297.48,69982
539.019,287.611,69008
538.732,277.731,68733
538.445,267.84,66711
538.158,257.939,62415
537.871,248.028,60883
537.584,238.105,60749
537.297,228.172,60640
537.01,218.229,60711
536.723,208.275,60591
553.152,761.621,76311
552.865,752.24,76096
552.578,742.849,75846
552.291,733.448,75760
552.004,724.037,75891
551.717,714.616,75797
551.43,705.186,75708
551.143,695.746,75808
550.857,686.296,75672
550.57,676.836,75533
550.283,667.366,75734
549.996,657.887,75320
549.709,648.397,75343
549.422,638.898,75222
549.135,629.389,75122
548.848,619.869,75444
548.561,610.34,75015
548.274,600.801,74983
547.988,591.252,74290
547.701,581.693,74228
547.414,572.124,73863
547.127,562.544,73684
546.84,552.955,73544
546.553,543.356,73107
546.266,533.746,73174
545.979,524.127,72872
545.692,514.497,72460
545.405,504.857,72532
545.119,495.207,72532
544.832,485.547,72443
544.545,475.877,72120
544.258,466.197,72709
543.971,456.506,72249
543.684,446.805,71829
543.397,437.094,71803
543.11,427.373,71618
542.823,417.641,71696
542.536,407.899,71989
542.249,398.147,71384
541.963,388.384,71427
541.676,378.611,71295
541.389,368.828,71193
541.102,359.034,71095
540.815,349.23,71134
540.528,339.416,70861
540.241,329.591,70187
539.954,319.755,69964
539.667,309.91,70073
539.38,300.053,69796
539.094,290.186,68824
538.807,280.309,68572
538.52,270.421,67588
538.233,260.523,63185
537.946,250.614,61019
537.659,240.695,60686
537.372,230.765,60681
537.085,220.824,60593
536.798,210.873,60653
553.227,764.067,75782
552.94,754.688,75889
552.653,745.299,75570
552.366,735.901,75716
552.079,726.493,75543
551.792,717.075,75558
551.505,707.647,75241
551.218,698.21,75443
550.931,688.762,75476
550.644,679.305,75268
550.358,669.838,75238
550.071,660.361,75148
549.784,650.874,75006
549.497,641.377,75072
549.21,631.87,74781
548.923,622.354,75270
548.636,612.827,74880
548.349,603.291,74704
548.062,593.744,74358
547.775,584.187,74154
547.489,574.621,73833
547.202,565.044,73501
546.915,555.458,73474
546.628,545.861,73069
546.341,536.254,72842
546.054,526.637,72687
545.767,517.01,72352
545.48,507.373,72372
545.193,497.726,72014
544.906,488.068,72286
544.62,478.401,72218
544.333,468.723,72218
544.046,459.035,72075
543.759,449.337,71855
543.472,439.628,71737
543.185,429.91,71538
542.898,420.181,71580
542.611,410.441,71770
542.324,400.692,71321
542.037,390.932,71201
541.751,381.162,70992
541.464,371.381,71184
541.177,361.59,70832
540.89,351.789,70919
540.603,341.977,70512
540.316,332.155,70120
540.029,322.322,70001
539.742,312.479,70083
539.455,302.625,69886
539.168,292.761,69247
538.881,282.887,68490
538.595,273.002,68067
538.308,263.106,64335
538.021,253.2,61242
537.734,243.283,60693
537.447,233.356,60636
537.16,223.418,60542
536.873,213.47,60506
553.301,766.512,75917
553.015,757.136,75624
552.728,747.75,75465
552.441,738.354,75454
552.154,728.948,75417
551.867,719.533,75713
551.58,710.107,75356
551.293,700.672,75446
551.006,691.228,75426
550.719,681.773,75285
550.432,672.308,75367
550.146,662.834,75229
549.859,653.35,75094
549.572,643.855,75144
549.285,634.351,75106
548.998,624.837,75083
548.711,615.313,74721
548.424,605.779,75006
548.137,596.235,74141
547.85,586.681,73790
547.563,577.117,73439
547.277,567.543,73675
546.99,557.959,73703
546.703,548.365,73487
546.416,538.761,73199
546.129,529.147,72710
545.842,519.523,72476
545.555,509.888,72234
545.268,500.243,72226
544.981,490.589,71943
544.694,480.924,72321
544.407,471.249,72027
544.121,461.563,72189
543.834,451.868,71880
543.547,442.162,71401
543.26,432.446,71743
542.973,422.72,71458
542.686,412.983,71473
542.399,403.236,71695
542.112,393.479,71158
541.825,383.711,71107
541.538,373.933,71067
541.252,364.145,70869
540.965,354.347,70866
540.678,344.537,70622
540.391,334.718,70123
540.104,324.888,69640
539.817,315.048,70038
539.53,305.197,69953
539.243,295.336,69351
538.956,285.464,68708
538.669,275.582,68479
538.383,265.689,65595
538.096,255.785,61603
537.809,245.871,60877
537.522,235.947,60627
537.235,226.012,60629
536.948,216.066,60518
536.661,206.11,60493
553.089,759.583,75975
552.802,750.199,75462
552.516,740.806,75662
552.229,731.403,75868
551.942,721.99,75253
551.655,712.567,75497
551.368,703.135,75549
551.081,693.692,75492
550.794,684.24,75449
550.507,674.778,75114
550.22,665.306,75363
549.933,655.825,75412
549.647,646.333,75061
549.36,636.832,75000
549.073,627.32,75221
548.786,617.799,75001
548.499,608.267,74862
548.212,598.726,74316
547.925,589.175,74169
547.638,579.613,73777
547.351,570.042,73494
547.064,560.461,73274
546.778,550.869,73238
546.491,541.268,73158
546.204,531.656,73036
545.917,522.034,72605
545.63,512.402,72205
545.343,502.76,72495
545.056,493.108,72223
544.769,483.446,71963
544.482,473.774,72410
544.195,464.091,72233
543.909,454.398,72025
543.622,444.695,71914
543.335,434.981,71534
543.048,425.258,71457
542.761,415.524,71570
542.474,405.78,71605
542.187,396.025,71263
541.9,386.26,71081
541.613,376.485,71002
541.326,366.7,71034
541.04,356.904,70795
540.753,347.097,70647
540.466,337.281,70386
540.179,327.453,69760
539.892,317.616,69974
539.605,307.768,70093
539.318,297.909,69662
539.031,288.04,68780
538.744,278.161,68507
538.457,268.271,66653
538.17,258.37,62285
537.884,248.459,60892
537.597,238.537,60702
537.31,228.605,60551
537.023,218.662,60556
536.736,208.708,60545
536.661,206.11,60562