File: tomke/20240809/raw_data/Si_onTiO2_70mA_30mW_30sec_5acc_545nm_bg.txt
Wavelength(nm), Raman shift(cm^-1), Intensity(counts)
553.364,768.549,187586
553.077,759.175,187659
552.79,749.791,186489
552.503,740.397,184953
552.216,730.994,185419
551.929,721.58,184844
551.642,712.157,185062
551.356,702.724,184118
551.069,693.282,183603
550.782,683.829,183081
550.495,674.367,182002
550.208,664.894,180153
549.921,655.412,181424
549.634,645.92,179812
549.347,636.418,179867
549.06,626.906,179394
548.773,617.385,179628
548.486,607.853,178624
548.2,598.311,175540
547.913,588.759,172536
547.626,579.197,171713
547.339,569.626,171014
547.052,560.044,170366
546.765,550.452,169271
546.478,540.85,169102
546.191,531.238,167290
545.904,521.616,164942
545.617,511.983,163389
545.331,502.341,162472
545.044,492.688,162655
544.757,483.026,162699
544.47,473.353,162272
544.183,463.67,162362
543.896,453.976,160136
543.609,444.273,158777
543.322,434.559,157471
543.035,424.835,157595
542.748,415.1,157798
542.462,405.356,157009
542.175,395.601,156921
541.888,385.836,155261
541.601,376.06,153586
541.314,366.274,153111
541.027,356.478,152880
540.74,346.671,150926
540.453,336.854,148676
540.166,327.026,144514
539.879,317.188,143997
539.593,307.339,145034
539.306,297.48,142640
539.019,287.611,135008
538.732,277.731,132321
538.445,267.84,116018
538.158,257.939,77350
537.871,248.028,64968
537.584,238.105,63163
537.297,228.172,62877
537.01,218.229,62564
536.723,208.275,62600
553.152,761.621,191086
552.865,752.24,190195
552.578,742.849,189938
552.291,733.448,189236
552.004,724.037,187982
551.717,714.616,188631
551.43,705.186,188454
551.143,695.746,187774
550.857,686.296,187183
550.57,676.836,186917
550.283,667.366,185404
549.996,657.887,183594
549.709,648.397,182553
549.422,638.898,182765
549.135,629.389,183047
548.848,619.869,182404
548.561,610.34,180926
548.274,600.801,179890
547.988,591.252,177592
547.701,581.693,175685
547.414,572.124,174348
547.127,562.544,173225
546.84,552.955,173406
546.553,543.356,172323
546.266,533.746,170461
545.979,524.127,168737
545.692,514.497,167011
545.405,504.857,166714
545.119,495.207,165833
544.832,485.547,165089
544.545,475.877,164758
544.258,466.197,165102
543.971,456.506,164314
543.684,446.805,161981
543.397,437.094,160323
543.11,427.373,159915
542.823,417.641,160627
542.536,407.899,160392
542.249,398.147,160268
541.963,388.384,158670
541.676,378.611,156343
541.389,368.828,155954
541.102,359.034,156468
540.815,349.23,154912
540.528,339.416,151669
540.241,329.591,148221
539.954,319.755,146659
539.667,309.91,147938
539.38,300.053,146042
539.094,290.186,138229
538.807,280.309,134737
538.52,270.421,127295
538.233,260.523,85644
537.946,250.614,66589
537.659,240.695,63555
537.372,230.765,62859
537.085,220.824,62651
536.798,210.873,62420
553.227,764.067,200985
552.94,754.688,199843
552.653,745.299,199164
552.366,735.901,198019
552.079,726.493,197422
551.792,717.075,197682
551.505,707.647,197934
551.218,698.21,197629
550.931,688.762,196138
550.644,679.305,195144
550.358,669.838,193440
550.071,660.361,191879
549.784,650.874,191556
549.497,641.377,192700
549.21,631.87,192224
548.923,622.354,191432
548.636,612.827,190723
548.349,603.291,188675
548.062,593.744,186116
547.775,584.187,183925
547.489,574.621,182518
547.202,565.044,182297
546.915,555.458,180267
546.628,545.861,180854
546.341,536.254,178729
546.054,526.637,177118
545.767,517.01,175284
545.48,507.373,174116
545.193,497.726,173089
544.906,488.068,172741
544.62,478.401,173725
544.333,468.723,172832
544.046,459.035,171212
543.759,449.337,169886
543.472,439.628,167794
543.185,429.91,167115
542.898,420.181,167245
542.611,410.441,167946
542.324,400.692,167114
542.037,390.932,166119
541.751,381.162,164270
541.464,371.381,162559
541.177,361.59,162584
540.89,351.789,161945
540.603,341.977,159341
540.316,332.155,155591
540.029,322.322,152588
539.742,312.479,153711
539.455,302.625,153858
539.168,292.761,146396
538.881,282.887,140105
538.595,273.002,138428
538.308,263.106,99334
538.021,253.2,69639
537.734,243.283,64265
537.447,233.356,63103
537.16,223.418,62908
536.873,213.47,62747
553.301,766.512,204075
553.015,757.136,203451
552.728,747.75,202696
552.441,738.354,200973
552.154,728.948,200837
551.867,719.533,200457
551.58,710.107,199421
551.293,700.672,200225
551.006,691.228,199430
550.719,681.773,198938
550.432,672.308,197491
550.146,662.834,196271
549.859,653.35,195138
549.572,643.855,194883
549.285,634.351,194224
548.998,624.837,194660
548.711,615.313,194028
548.424,605.779,191366
548.137,596.235,189968
547.85,586.681,187108
547.563,577.117,185616
547.277,567.543,183964
546.99,557.959,183477
546.703,548.365,183770
546.416,538.761,182581
546.129,529.147,179596
545.842,519.523,178071
545.555,509.888,176944
545.268,500.243,175456
544.981,490.589,175465
544.694,480.924,175821
544.407,471.249,174812
544.121,461.563,175400
543.834,451.868,173057
543.547,442.162,171289
543.26,432.446,169483
542.973,422.72,169434
542.686,412.983,170723
542.399,403.236,170566
542.112,393.479,169174
541.825,383.711,166340
541.538,373.933,165619
541.252,364.145,165100
540.965,354.347,164873
540.678,344.537,162709
540.391,334.718,158637
540.104,324.888,155760
539.817,315.048,155520
539.53,305.197,156163
539.243,295.336,151628
538.956,285.464,142274
538.669,275.582,142330
538.383,265.689,112576
538.096,255.785,74056
537.809,245.871,64620
537.522,235.947,63417
537.235,226.012,63068
536.948,216.066,62866
536.661,206.11,62819
553.089,759.583,209731
552.802,750.199,208359
552.516,740.806,207480
552.229,731.403,206381
551.942,721.99,205741
551.655,712.567,205840
551.368,703.135,205835
551.081,693.692,204762
550.794,684.24,204558
550.507,674.778,203093
550.22,665.306,201318
549.933,655.825,200017
549.647,646.333,199692
549.36,636.832,199969
549.073,627.32,200279
548.786,617.799,198985
548.499,608.267,197755
548.212,598.726,195872
547.925,589.175,192859
547.638,579.613,190562
547.351,570.042,189484
547.064,560.461,189777
546.778,550.869,188755
546.491,541.268,188022
546.204,531.656,186324
545.917,522.034,182807
545.63,512.402,181374
545.343,502.76,180580
545.056,493.108,179518
544.769,483.446,180196
544.482,473.774,180239
544.195,464.091,179557
543.909,454.398,178312
543.622,444.695,176024
543.335,434.981,174256
543.048,425.258,174254
542.761,415.524,174020
542.474,405.78,174810
542.187,396.025,174097
541.9,386.26,171576
541.613,376.485,170274
541.326,366.7,168951
541.04,356.904,168902
540.753,347.097,167168
540.466,337.281,164460
540.179,327.453,159564
539.892,317.616,159392
539.605,307.768,160793
539.318,297.909,156307
539.031,288.04,147466
538.744,278.161,145701
538.457,268.271,127938
538.17,258.37,81448
537.884,248.459,66116
537.597,238.537,63450
537.31,228.605,63131
537.023,218.662,62857
536.736,208.708,62836
536.661,206.11,62832