File: tomke/20240809/raw_data/Si_onTiO2_60mA_30mW_30sec_5acc_517nm.txt
Wavelength(nm), Raman shift(cm^-1), Intensity(counts)
525.364,-194.586,72030
525.077,-204.986,72422
524.79,-215.398,72583
524.503,-225.821,73239
524.216,-236.256,73344
523.929,-246.702,73586
523.642,-257.159,75204
523.356,-267.628,83682
523.069,-278.109,105576
522.782,-288.6,118928
522.495,-299.104,121046
522.208,-309.619,121575
521.921,-320.145,119728
521.634,-330.684,119343
521.347,-341.233,118067
521.06,-351.795,117467
520.773,-362.368,116425
520.486,-372.952,115271
520.2,-383.548,114516
519.913,-394.156,113952
519.626,-404.776,112724
519.339,-415.408,111302
519.052,-426.051,110213
518.765,-436.706,108666
518.478,-447.373,107725
518.191,-458.051,107205
517.904,-468.742,106656
517.617,-479.444,106922
517.331,-490.158,108837
517.044,-500.884,113769
516.757,-511.622,106517
516.47,-522.372,104137
516.183,-533.134,103605
515.896,-543.907,103380
515.609,-554.693,102832
515.322,-565.491,101684
515.035,-576.301,101252
514.748,-587.123,101624
514.462,-597.957,101182
514.175,-608.803,100314
513.888,-619.661,99620
513.601,-630.531,98966
513.314,-641.413,98688
513.027,-652.308,97565
512.74,-663.215,97473
512.453,-674.134,96304
512.166,-685.065,95978
511.879,-696.008,94978
511.593,-706.964,94763
511.306,-717.932,93752
511.019,-728.913,93173
510.732,-739.905,92634
510.445,-750.91,91613
510.158,-761.928,90448
509.871,-772.958,90458
509.584,-784,89647
509.297,-795.055,89090
509.01,-806.122,88546
508.723,-817.201,87799
525.152,-202.272,70943
524.865,-212.681,71242
524.578,-223.101,71378
524.291,-233.532,71730
524.004,-243.976,71716
523.717,-254.43,72392
523.43,-264.896,76812
523.143,-275.373,92746
522.857,-285.862,106453
522.57,-296.363,109854
522.283,-306.875,109986
521.996,-317.398,109149
521.709,-327.933,108318
521.422,-338.48,107595
521.135,-349.038,107051
520.848,-359.608,106236
520.561,-370.19,104288
520.274,-380.783,104135
519.988,-391.388,102984
519.701,-402.005,102719
519.414,-412.633,101920
519.127,-423.273,100717
518.84,-433.925,99253
518.553,-444.589,98835
518.266,-455.264,97715
517.979,-465.952,97421
517.692,-476.651,97422
517.405,-487.362,97919
517.119,-498.085,104384
516.832,-508.82,99018
516.545,-519.566,95658
516.258,-530.325,95044
515.971,-541.096,93901
515.684,-551.878,93775
515.397,-562.673,93511
515.11,-573.48,93435
514.823,-584.298,92836
514.536,-595.129,92403
514.249,-605.972,92301
513.963,-616.827,91974
513.676,-627.694,90862
513.389,-638.573,90461
513.102,-649.465,90327
512.815,-660.368,89250
512.528,-671.284,89269
512.241,-682.212,88264
511.954,-693.152,87979
511.667,-704.105,87277
511.38,-715.07,86927
511.094,-726.047,86058
510.807,-737.036,86443
510.52,-748.038,85439
510.233,-759.052,85111
509.946,-770.079,84000
509.659,-781.118,83821
509.372,-792.17,83193
509.085,-803.233,82503
508.798,-814.31,82087
525.227,-199.558,69179
524.94,-209.964,69432
524.653,-220.381,69724
524.366,-230.81,69921
524.079,-241.25,70275
523.792,-251.702,70456
523.505,-262.165,72373
523.218,-272.639,82493
522.931,-283.125,95434
522.644,-293.622,99426
522.358,-304.131,99298
522.071,-314.652,98873
521.784,-325.184,98387
521.497,-335.728,97319
521.21,-346.283,96930
520.923,-356.85,96018
520.636,-367.428,95283
520.349,-378.019,94517
520.062,-388.62,94197
519.775,-399.234,93864
519.489,-409.859,92859
519.202,-420.496,92140
518.915,-431.145,91007
518.628,-441.806,90471
518.341,-452.478,89636
518.054,-463.163,89637
517.767,-473.859,89152
517.48,-484.567,89648
517.193,-495.286,94095
516.906,-506.018,93460
516.62,-516.762,88510
516.333,-527.517,87339
516.046,-538.285,86654
515.759,-549.064,86263
515.472,-559.856,85961
515.185,-570.659,85688
514.898,-581.475,85608
514.611,-592.303,85560
514.324,-603.142,85280
514.037,-613.994,84587
513.751,-624.858,84193
513.464,-635.734,83662
513.177,-646.622,83072
512.89,-657.523,83179
512.603,-668.435,82495
512.316,-679.36,82295
512.029,-690.297,81709
511.742,-701.247,80978
511.455,-712.208,81282
511.168,-723.182,80448
510.881,-734.168,80337
510.595,-745.167,79876
510.308,-756.178,79088
510.021,-767.201,78528
509.734,-778.237,78660
509.447,-789.285,78113
509.16,-800.346,77616
508.873,-811.419,77512
525.301,-196.846,69431
525.015,-207.249,69656
524.728,-217.663,69793
524.441,-228.088,69864
524.154,-238.526,69950
523.867,-248.974,70319
523.58,-259.434,71570
523.293,-269.905,78913
523.006,-280.388,92922
522.719,-290.883,99534
522.432,-301.389,100075
522.146,-311.906,99237
521.859,-322.435,98391
521.572,-332.976,98220
521.285,-343.528,97176
520.998,-354.092,96629
520.711,-364.668,96290
520.424,-375.255,95464
520.137,-385.854,94503
519.85,-396.464,93697
519.563,-407.086,93707
519.277,-417.72,92020
518.99,-428.366,91187
518.703,-439.024,90471
518.416,-449.693,89718
518.129,-460.374,89802
517.842,-471.067,89159
517.555,-481.772,89508
517.268,-492.489,92500
516.981,-503.217,96270
516.694,-513.958,89141
516.407,-524.71,87190
516.121,-535.475,86741
515.834,-546.251,86927
515.547,-557.039,86282
515.26,-567.84,85881
514.973,-578.652,85680
514.686,-589.477,85459
514.399,-600.313,85179
514.112,-611.162,85077
513.825,-622.023,84358
513.538,-632.896,84301
513.252,-643.781,83343
512.965,-654.678,82883
512.678,-665.587,82665
512.391,-676.509,82329
512.104,-687.443,81785
511.817,-698.389,81603
511.53,-709.347,80750
511.243,-720.318,80758
510.956,-731.301,79993
510.669,-742.297,79839
510.383,-753.304,79578
510.096,-764.325,78937
509.809,-775.357,78680
509.522,-786.402,78217
509.235,-797.459,77639
508.948,-808.529,77452
508.661,-819.612,76896
525.089,-204.534,69844
524.802,-214.945,70244
524.516,-225.368,70695
524.229,-235.802,70530
523.942,-246.247,70752
523.655,-256.704,71703
523.368,-267.173,76834
523.081,-277.653,92140
522.794,-288.144,102351
522.507,-298.647,103289
522.22,-309.161,103564
521.933,-319.687,102198
521.647,-330.225,101353
521.36,-340.774,100899
521.073,-351.335,100275
520.786,-361.908,99281
520.499,-372.492,98487
520.212,-383.088,97538
519.925,-393.695,97605
519.638,-404.314,96473
519.351,-414.945,95748
519.064,-425.588,94541
518.778,-436.242,93683
518.491,-446.909,92185
518.204,-457.587,92734
517.917,-468.277,92107
517.63,-478.978,92074
517.343,-489.692,93319
517.056,-500.417,103426
516.769,-511.155,92991
516.482,-521.904,90163
516.195,-532.665,89972
515.909,-543.439,89490
515.622,-554.224,88664
515.335,-565.021,88894
515.048,-575.831,88050
514.761,-586.652,87875
514.474,-597.485,87759
514.187,-608.331,87590
513.9,-619.188,86588
513.613,-630.058,86642
513.326,-640.94,86088
513.04,-651.834,85543
512.753,-662.74,85080
512.466,-673.659,84651
512.179,-684.589,84405
511.892,-695.532,83566
511.605,-706.488,83200
511.318,-717.455,82390
511.031,-728.435,82248
510.744,-739.427,81933
510.457,-750.432,81275
510.17,-761.448,81184
509.884,-772.478,80831
509.597,-783.52,80085
509.31,-794.574,79934
509.023,-805.64,79122
508.736,-816.719,78949
508.661,-819.612,78933