File: tomke/20240809/raw_data/Si_onTiO2_40mA_30mW_30sec_5acc_545nm.txt
Wavelength(nm), Raman shift(cm^-1), Intensity(counts)
553.364,768.549,75365
553.077,759.175,75520
552.79,749.791,75114
552.503,740.397,75198
552.216,730.994,75182
551.929,721.58,74979
551.642,712.157,75145
551.356,702.724,75074
551.069,693.282,75103
550.782,683.829,75180
550.495,674.367,75217
550.208,664.894,75076
549.921,655.412,74828
549.634,645.92,75087
549.347,636.418,75078
549.06,626.906,75014
548.773,617.385,74794
548.486,607.853,74562
548.2,598.311,74442
547.913,588.759,73866
547.626,579.197,73737
547.339,569.626,73594
547.052,560.044,73457
546.765,550.452,73148
546.478,540.85,73220
546.191,531.238,73233
545.904,521.616,74035
545.617,511.983,77365
545.331,502.341,87642
545.044,492.688,76778
544.757,483.026,73810
544.47,473.353,73001
544.183,463.67,72655
543.896,453.976,72384
543.609,444.273,71850
543.322,434.559,72019
543.035,424.835,71994
542.748,415.1,72142
542.462,405.356,71763
542.175,395.601,71838
541.888,385.836,71699
541.601,376.06,71506
541.314,366.274,71534
541.027,356.478,71480
540.74,346.671,71628
540.453,336.854,71156
540.166,327.026,70883
539.879,317.188,71019
539.593,307.339,71461
539.306,297.48,71347
539.019,287.611,70488
538.732,277.731,70205
538.445,267.84,67547
538.158,257.939,62410
537.871,248.028,60905
537.584,238.105,60636
537.297,228.172,60552
537.01,218.229,60735
536.723,208.275,60672
553.152,761.621,76922
552.865,752.24,76621
552.578,742.849,76620
552.291,733.448,76535
552.004,724.037,76300
551.717,714.616,76472
551.43,705.186,76365
551.143,695.746,76346
550.857,686.296,76619
550.57,676.836,76380
550.283,667.366,76579
549.996,657.887,76155
549.709,648.397,76382
549.422,638.898,76232
549.135,629.389,76273
548.848,619.869,76216
548.561,610.34,75941
548.274,600.801,75595
547.988,591.252,75314
547.701,581.693,75180
547.414,572.124,74920
547.127,562.544,74610
546.84,552.955,74502
546.553,543.356,74277
546.266,533.746,74591
545.979,524.127,74993
545.692,514.497,76307
545.405,504.857,87878
545.119,495.207,80198
544.832,485.547,75372
544.545,475.877,74155
544.258,466.197,73990
543.971,456.506,73205
543.684,446.805,73156
543.397,437.094,73095
543.11,427.373,72957
542.823,417.641,73031
542.536,407.899,73298
542.249,398.147,73096
541.963,388.384,72837
541.676,378.611,72638
541.389,368.828,72159
541.102,359.034,72462
540.815,349.23,72245
540.528,339.416,72182
540.241,329.591,71753
539.954,319.755,71748
539.667,309.91,72013
539.38,300.053,72327
539.094,290.186,72002
538.807,280.309,70843
538.52,270.421,69682
538.233,260.523,63739
537.946,250.614,61143
537.659,240.695,60626
537.372,230.765,60653
537.085,220.824,60715
536.798,210.873,60551
553.227,764.067,76689
552.94,754.688,76313
552.653,745.299,76262
552.366,735.901,76061
552.079,726.493,76239
551.792,717.075,75987
551.505,707.647,76245
551.218,698.21,76066
550.931,688.762,76161
550.644,679.305,75917
550.358,669.838,76015
550.071,660.361,75946
549.784,650.874,76013
549.497,641.377,75700
549.21,631.87,76135
548.923,622.354,75746
548.636,612.827,75996
548.349,603.291,75535
548.062,593.744,75084
547.775,584.187,74805
547.489,574.621,74496
547.202,565.044,74428
546.915,555.458,73790
546.628,545.861,73894
546.341,536.254,73987
546.054,526.637,74432
545.767,517.01,75308
545.48,507.373,83769
545.193,497.726,82646
544.906,488.068,75492
544.62,478.401,74143
544.333,468.723,73763
544.046,459.035,73233
543.759,449.337,72908
543.472,439.628,72582
543.185,429.91,72631
542.898,420.181,72930
542.611,410.441,73082
542.324,400.692,72573
542.037,390.932,72520
541.751,381.162,72598
541.464,371.381,72215
541.177,361.59,72208
540.89,351.789,72312
540.603,341.977,72161
540.316,332.155,71871
540.029,322.322,71663
539.742,312.479,71686
539.455,302.625,72262
539.168,292.761,71714
538.881,282.887,70761
538.595,273.002,70251
538.308,263.106,65089
538.021,253.2,61404
537.734,243.283,60928
537.447,233.356,60673
537.16,223.418,60710
536.873,213.47,60617
553.301,766.512,77508
553.015,757.136,77525
552.728,747.75,77196
552.441,738.354,77016
552.154,728.948,77018
551.867,719.533,77211
551.58,710.107,77331
551.293,700.672,77295
551.006,691.228,77244
550.719,681.773,77064
550.432,672.308,76730
550.146,662.834,76692
549.859,653.35,76717
549.572,643.855,76717
549.285,634.351,76821
548.998,624.837,76811
548.711,615.313,76713
548.424,605.779,76276
548.137,596.235,76099
547.85,586.681,75646
547.563,577.117,75077
547.277,567.543,75154
546.99,557.959,74970
546.703,548.365,74870
546.416,538.761,74941
546.129,529.147,74976
545.842,519.523,75655
545.555,509.888,80479
545.268,500.243,87416
544.981,490.589,77465
544.694,480.924,74885
544.407,471.249,74388
544.121,461.563,74218
543.834,451.868,73710
543.547,442.162,73307
543.26,432.446,73494
542.973,422.72,73263
542.686,412.983,73629
542.399,403.236,73526
542.112,393.479,73373
541.825,383.711,73186
541.538,373.933,72717
541.252,364.145,72756
540.965,354.347,72911
540.678,344.537,72564
540.391,334.718,72265
540.104,324.888,72055
539.817,315.048,71982
539.53,305.197,75758
539.243,295.336,72382
538.956,285.464,71317
538.669,275.582,70964
538.383,265.689,66928
538.096,255.785,62056
537.809,245.871,60938
537.522,235.947,60766
537.235,226.012,60597
536.948,216.066,60613
536.661,206.11,60663
553.089,759.583,76729
552.802,750.199,76708
552.516,740.806,76686
552.229,731.403,76372
551.942,721.99,76319
551.655,712.567,76581
551.368,703.135,76459
551.081,693.692,76307
550.794,684.24,76733
550.507,674.778,76360
550.22,665.306,76175
549.933,655.825,76158
549.647,646.333,76481
549.36,636.832,76335
549.073,627.32,76285
548.786,617.799,75961
548.499,608.267,75826
548.212,598.726,75271
547.925,589.175,75338
547.638,579.613,74933
547.351,570.042,74687
547.064,560.461,74567
546.778,550.869,74646
546.491,541.268,74349
546.204,531.656,74538
545.917,522.034,75006
545.63,512.402,77884
545.343,502.76,88927
545.056,493.108,78155
544.769,483.446,74796
544.482,473.774,74138
544.195,464.091,73989
543.909,454.398,73485
543.622,444.695,73041
543.335,434.981,73274
543.048,425.258,73277
542.761,415.524,73110
542.474,405.78,73002
542.187,396.025,73006
541.9,386.26,72558
541.613,376.485,72770
541.326,366.7,72769
541.04,356.904,72276
540.753,347.097,72257
540.466,337.281,72020
540.179,327.453,71891
539.892,317.616,71778
539.605,307.768,72253
539.318,297.909,72129
539.031,288.04,71552
538.744,278.161,70945
538.457,268.271,68447
538.17,258.37,62867
537.884,248.459,61035
537.597,238.537,60765
537.31,228.605,60766
537.023,218.662,60710
536.736,208.708,60676
536.661,206.11,60649