File: tomke/20240809/raw_data/Si_onTiO2_0mA_30mW_30sec_5acc_539nm.txt
Wavelength(nm), Raman shift(cm^-1), Intensity(counts)
547.364,570.458,59787
547.077,560.877,60281
546.79,551.286,60408
546.503,541.685,60748
546.216,532.074,63321
545.929,522.453,98416
545.642,512.821,61994
545.356,503.18,60709
545.069,493.528,60383
544.782,483.866,60270
544.495,474.194,60137
544.208,464.512,60116
543.921,454.82,60161
543.634,445.117,60234
543.347,435.404,60363
543.06,425.681,60334
542.773,415.947,60350
542.486,406.204,60291
542.2,396.45,60406
541.913,386.685,60425
541.626,376.91,60333
541.339,367.125,60282
541.052,357.33,60387
540.765,347.524,60331
540.478,337.708,60463
540.191,327.881,60520
539.904,318.044,60668
539.617,308.196,60826
539.331,298.338,60901
539.044,288.469,60730
538.757,278.59,60531
538.47,268.701,60370
538.183,258.801,60064
537.896,248.89,59999
537.609,238.969,59958
537.322,229.037,60008
537.035,219.094,60052
536.748,209.141,59961
536.462,199.177,59888
536.175,189.203,59971
535.888,179.218,59978
535.601,169.222,60040
535.314,159.215,59997
535.027,149.198,59940
534.74,139.17,59929
534.453,129.131,60022
534.166,119.082,59963
533.879,109.021,59946
533.593,98.9499,60046
533.306,88.8679,60023
533.019,78.775,59870
532.732,68.6713,60006
532.445,58.5566,59898
532.158,48.4311,60077
531.871,38.2946,60040
531.584,28.1472,59986
531.297,17.9888,59994
531.01,7.81945,60265
530.723,-2.3609,309396
547.152,563.378,60353
546.865,553.789,60299
546.578,544.191,60645
546.291,534.582,61931
546.004,524.964,107369
545.717,515.335,63713
545.43,505.696,60754
545.143,496.047,60492
544.857,486.388,60352
544.57,476.718,60244
544.283,467.039,60215
543.996,457.349,60187
543.709,447.649,60271
543.422,437.939,60358
543.135,428.218,60271
542.848,418.488,60282
542.561,408.746,60355
542.274,398.995,60277
541.988,389.233,60259
541.701,379.461,60348
541.414,369.679,60368
541.127,359.886,60485
540.84,350.083,60354
540.553,340.269,60417
540.266,330.445,60498
539.979,320.611,60697
539.692,310.766,60741
539.405,300.911,60939
539.119,291.045,60590
538.832,281.169,60634
538.545,271.282,60445
538.258,261.384,60146
537.971,251.476,60044
537.684,241.558,59951
537.397,231.629,59966
537.11,221.689,59938
536.823,211.738,59999
536.536,201.777,59911
536.249,191.806,59971
535.963,181.823,60005
535.676,171.83,59945
535.389,161.827,59989
535.102,151.812,59931
534.815,141.787,59960
534.528,131.751,59976
534.241,121.704,59984
533.954,111.647,59974
533.667,101.578,60031
533.38,91.4991,59962
533.094,81.409,59967
532.807,71.3081,59982
532.52,61.1963,59922
532.233,51.0736,59989
531.946,40.9399,60014
531.659,30.7954,59941
531.372,20.6399,60031
531.085,10.4734,60210
530.798,0.295901,958127
547.227,565.877,60183
546.94,556.292,60322
546.653,546.696,60577
546.366,537.09,61300
546.079,527.474,83698
545.792,517.848,69071
545.505,508.211,61028
545.218,498.565,60521
544.931,488.909,60347
544.644,479.242,60173
544.358,469.565,60133
544.071,459.878,60161
543.784,450.18,60258
543.497,440.473,60294
543.21,430.755,60305
542.923,421.027,60305
542.636,411.289,60402
542.349,401.54,60342
542.062,391.781,60284
541.775,382.012,60326
541.489,372.232,60346
541.202,362.442,60380
540.915,352.641,60392
540.628,342.83,60376
540.341,333.009,60512
540.054,323.178,60443
539.767,313.335,60738
539.48,303.483,61004
539.193,293.62,60719
538.906,283.746,60585
538.62,273.862,60677
538.333,263.967,60277
538.046,254.062,60008
537.759,244.146,59959
537.472,234.22,59977
537.185,224.283,59940
536.898,214.335,59872
536.611,204.377,60009
536.324,194.408,59985
536.037,184.429,60018
535.751,174.438,59926
535.464,164.437,60006
535.177,154.426,60010
534.89,144.403,59969
534.603,134.37,60009
534.316,124.326,59924
534.029,114.271,59984
533.742,104.206,60054
533.455,94.1295,60067
533.168,84.0422,59949
532.881,73.9442,59917
532.595,63.8352,60016
532.308,53.7153,60009
532.021,43.5846,59992
531.734,33.4428,60021
531.447,23.2902,60053
531.16,13.1266,60075
530.873,2.95196,216621
547.301,568.376,60325
547.015,558.793,60239
546.728,549.2,60488
546.441,539.597,60925
546.154,529.983,66820
545.867,520.36,80836
545.58,510.726,61483
545.293,501.083,60612
545.006,491.429,60401
544.719,481.765,60280
544.432,472.09,60162
544.146,462.406,60204
543.859,452.711,60252
543.572,443.006,60350
543.285,433.291,60299
542.998,423.566,60332
542.711,413.83,60376
542.424,404.084,60345
542.137,394.328,60402
541.85,384.561,60333
541.563,374.784,60352
541.277,364.997,60456
540.99,355.199,60376
540.703,345.391,60449
540.416,335.572,60446
540.129,325.743,60569
539.842,315.904,60626
539.555,306.054,60825
539.268,296.194,60653
538.981,286.323,60616
538.694,276.441,60655
538.407,266.549,60401
538.121,256.647,60204
537.834,246.734,60008
537.547,236.81,60081
537.26,226.876,59999
536.973,216.931,60021
536.686,206.976,60033
536.399,197.01,60033
536.112,187.033,60026
535.825,177.045,59990
535.538,167.047,60011
535.252,157.038,60037
534.965,147.019,60079
534.678,136.988,60059
534.391,126.947,60000
534.104,116.895,59976
533.817,106.833,60007
533.53,96.7591,60007
533.243,86.6747,60085
532.956,76.5795,59983
532.669,66.4734,60004
532.383,56.3563,59964
532.096,46.2284,60042
531.809,36.0896,60011
531.522,25.9398,60017
531.235,15.779,60033
530.948,5.60726,60500
530.661,-4.57548,76197
547.089,561.294,60244
546.802,551.704,60377
546.516,542.103,60762
546.229,532.492,63044
545.942,522.871,102401
545.655,513.24,62215
545.368,503.599,60691
545.081,493.948,60421
544.794,484.287,60270
544.507,474.615,60256
544.22,464.933,60110
543.933,455.241,60178
543.647,445.539,60305
543.36,435.827,60383
543.073,426.104,60350
542.786,416.371,60351
542.499,406.627,60339
542.212,396.874,60388
541.925,387.11,60279
541.638,377.336,60348
541.351,367.551,60384
541.064,357.756,60486
540.778,347.95,60377
540.491,338.135,60533
540.204,328.308,60409
539.917,318.472,60591
539.63,308.625,60790
539.343,298.767,60846
539.056,288.899,60618
538.769,279.02,60527
538.482,269.131,60306
538.195,259.231,60194
537.909,249.321,59962
537.622,239.4,59996
537.335,229.469,59952
537.048,219.527,60046
536.761,209.574,60006
536.474,199.611,59951
536.187,189.637,59951
535.9,179.652,60022
535.613,169.657,59901
535.326,159.65,59967
535.04,149.634,59885
534.753,139.606,59987
534.466,129.568,60005
534.179,119.519,60017
533.892,109.459,59978
533.605,99.3881,59982
533.318,89.3065,60014
533.031,79.2141,59874
532.744,69.1108,60050
532.457,58.9966,59937
532.17,48.8715,60026
531.884,38.7355,59972
531.597,28.5886,60051
531.31,18.4307,60049
531.023,8.26182,60194
530.736,-1.91805,482895
530.661,-4.57548,76271