File: tomke/20240809/raw_data/Si_onTiO2_60mA_30mW_30sec_5acc_517nm_02.txt
Wavelength(nm), Raman shift(cm^-1), Intensity(counts)
525.364,-194.586,70275
525.077,-204.986,71442
524.79,-215.398,71308
524.503,-225.821,71690
524.216,-236.256,71689
523.929,-246.702,72016
523.642,-257.159,73415
523.356,-267.628,79660
523.069,-278.109,97933
522.782,-288.6,108809
522.495,-299.104,111233
522.208,-309.619,110198
521.921,-320.145,110141
521.634,-330.684,109004
521.347,-341.233,108480
521.06,-351.795,107260
520.773,-362.368,116563
520.486,-372.952,104987
520.2,-383.548,104607
519.913,-394.156,104031
519.626,-404.776,103118
519.339,-415.408,102494
519.052,-426.051,101528
518.765,-436.706,99635
518.478,-447.373,99012
518.191,-458.051,98366
517.904,-468.742,98340
517.617,-479.444,97991
517.331,-490.158,100238
517.044,-500.884,105670
516.757,-511.622,98208
516.47,-522.372,95942
516.183,-533.134,95692
515.896,-543.907,94794
515.609,-554.693,94273
515.322,-565.491,94064
515.035,-576.301,94134
514.748,-587.123,93456
514.462,-597.957,92986
514.175,-608.803,92913
513.888,-619.661,92522
513.601,-630.531,91689
513.314,-641.413,91355
513.027,-652.308,90294
512.74,-663.215,89947
512.453,-674.134,89617
512.166,-685.065,88925
511.879,-696.008,88396
511.593,-706.964,87666
511.306,-717.932,87528
511.019,-728.913,86645
510.732,-739.905,86464
510.445,-750.91,86006
510.158,-761.928,84759
509.871,-772.958,84608
509.584,-784,83700
509.297,-795.055,83185
509.01,-806.122,83261
508.723,-817.201,82676
525.152,-202.272,71330
524.865,-212.681,71774
524.578,-223.101,71862
524.291,-233.532,71890
524.004,-243.976,72140
523.717,-254.43,73161
523.43,-264.896,77754
523.143,-275.373,94894
522.857,-285.862,109602
522.57,-296.363,113027
522.283,-306.875,113305
521.996,-317.398,112947
521.709,-327.933,111844
521.422,-338.48,110875
521.135,-349.038,110709
520.848,-359.608,108856
520.561,-370.19,108031
520.274,-380.783,107279
519.988,-391.388,106674
519.701,-402.005,106062
519.414,-412.633,104868
519.127,-423.273,103880
518.84,-433.925,102697
518.553,-444.589,101154
518.266,-455.264,100673
517.979,-465.952,100308
517.692,-476.651,100051
517.405,-487.362,101144
517.119,-498.085,106934
516.832,-508.82,101915
516.545,-519.566,98117
516.258,-530.325,97138
515.971,-541.096,97053
515.684,-551.878,96465
515.397,-562.673,96231
515.11,-573.48,96063
514.823,-584.298,95627
514.536,-595.129,95588
514.249,-605.972,94553
513.963,-616.827,94340
513.676,-627.694,93518
513.389,-638.573,93055
513.102,-649.465,92630
512.815,-660.368,91724
512.528,-671.284,91678
512.241,-682.212,90967
511.954,-693.152,90304
511.667,-704.105,89519
511.38,-715.07,88668
511.094,-726.047,88290
510.807,-737.036,87733
510.52,-748.038,87022
510.233,-759.052,86530
509.946,-770.079,85772
509.659,-781.118,85285
509.372,-792.17,85084
509.085,-803.233,84517
508.798,-814.31,83863
525.227,-199.558,71962
524.94,-209.964,72034
524.653,-220.381,72322
524.366,-230.81,72463
524.079,-241.25,72683
523.792,-251.702,73166
523.505,-262.165,76103
523.218,-272.639,90373
522.931,-283.125,109425
522.644,-293.622,115460
522.358,-304.131,116132
522.071,-314.652,115021
521.784,-325.184,114373
521.497,-335.728,113759
521.21,-346.283,112632
520.923,-356.85,112268
520.636,-367.428,110605
520.349,-378.019,109447
520.062,-388.62,109653
519.775,-399.234,108365
519.489,-409.859,107809
519.202,-420.496,106104
518.915,-431.145,104896
518.628,-441.806,103519
518.341,-452.478,103286
518.054,-463.163,102672
517.767,-473.859,102270
517.48,-484.567,102723
517.193,-495.286,107452
516.906,-506.018,105722
516.62,-516.762,100587
516.333,-527.517,100004
516.046,-538.285,98856
515.759,-549.064,98132
515.472,-559.856,98034
515.185,-570.659,97667
514.898,-581.475,97242
514.611,-592.303,97484
514.324,-603.142,96622
514.037,-613.994,96218
513.751,-624.858,95844
513.464,-635.734,95342
513.177,-646.622,94325
512.89,-657.523,93947
512.603,-668.435,93476
512.316,-679.36,92421
512.029,-690.297,91648
511.742,-701.247,91523
511.455,-712.208,90737
511.168,-723.182,90568
510.881,-734.168,89825
510.595,-745.167,88982
510.308,-756.178,88363
510.021,-767.201,87914
509.734,-778.237,86691
509.447,-789.285,86621
509.16,-800.346,85878
508.873,-811.419,85188
525.301,-196.846,72123
525.015,-207.249,72194
524.728,-217.663,72361
524.441,-228.088,72576
524.154,-238.526,72797
523.867,-248.974,73466
523.58,-259.434,75557
523.293,-269.905,86001
523.006,-280.388,107431
522.719,-290.883,117351
522.432,-301.389,118420
522.146,-311.906,117748
521.859,-322.435,116744
521.572,-332.976,115802
521.285,-343.528,115581
520.998,-354.092,114354
520.711,-364.668,112976
520.424,-375.255,112327
520.137,-385.854,111217
519.85,-396.464,110292
519.563,-407.086,110130
519.277,-417.72,108058
518.99,-428.366,107203
518.703,-439.024,106020
518.416,-449.693,104990
518.129,-460.374,105013
517.842,-471.067,104531
517.555,-481.772,104521
517.268,-492.489,107029
516.981,-503.217,109829
516.694,-513.958,103436
516.407,-524.71,101577
516.121,-535.475,101262
515.834,-546.251,100655
515.547,-557.039,100182
515.26,-567.84,99586
514.973,-578.652,99093
514.686,-589.477,99151
514.399,-600.313,98401
514.112,-611.162,98043
513.825,-622.023,97500
513.538,-632.896,96946
513.252,-643.781,96333
512.965,-654.678,95338
512.678,-665.587,95063
512.391,-676.509,94053
512.104,-687.443,93870
511.817,-698.389,92684
511.53,-709.347,92201
511.243,-720.318,91591
510.956,-731.301,91245
510.669,-742.297,90578
510.383,-753.304,89475
510.096,-764.325,88865
509.809,-775.357,88539
509.522,-786.402,88089
509.235,-797.459,87567
508.948,-808.529,86824
508.661,-819.612,85774
525.089,-204.534,72220
524.802,-214.945,72515
524.516,-225.368,72939
524.229,-235.802,73199
523.942,-246.247,73420
523.655,-256.704,74889
523.368,-267.173,82051
523.081,-277.653,103630
522.794,-288.144,117487
522.507,-298.647,119968
522.22,-309.161,119625
521.933,-319.687,118859
521.647,-330.225,117839
521.36,-340.774,116931
521.073,-351.335,116576
520.786,-361.908,115388
520.499,-372.492,113360
520.212,-383.088,112899
519.925,-393.695,112257
519.638,-404.314,111411
519.351,-414.945,110173
519.064,-425.588,109420
518.778,-436.242,107034
518.491,-446.909,106831
518.204,-457.587,106149
517.917,-468.277,105830
517.63,-478.978,105629
517.343,-489.692,107234
517.056,-500.417,113093
516.769,-511.155,105359
516.482,-521.904,103280
516.195,-532.665,102208
515.909,-543.439,101638
515.622,-554.224,101873
515.335,-565.021,100618
515.048,-575.831,100694
514.761,-586.652,100736
514.474,-597.485,99727
514.187,-608.331,99232
513.9,-619.188,99261
513.613,-630.058,97937
513.326,-640.94,97159
513.04,-651.834,96920
512.753,-662.74,95935
512.466,-673.659,95661
512.179,-684.589,94773
511.892,-695.532,94275
511.605,-706.488,93725
511.318,-717.455,92633
511.031,-728.435,92277
510.744,-739.427,91654
510.457,-750.432,90812
510.17,-761.448,90170
509.884,-772.478,89600
509.597,-783.52,88535
509.31,-794.574,88322
509.023,-805.64,87480
508.736,-816.719,87205
508.661,-819.612,86972