File: tomke/20240809/raw_data/Si_onTiO2_0mA_30mW_30sec_3acc_545nm_bg.txt
Wavelength(nm), Raman shift(cm^-1), Intensity(counts)
553.364,768.549,59786
553.189,762.844,60049
553.015,757.136,59993
552.84,751.424,59931
552.665,745.708,60018
552.491,739.989,59970
552.316,734.266,59989
552.141,728.539,60070
551.967,722.809,60035
551.792,717.075,59974
551.617,711.337,60047
551.443,705.596,60085
551.268,699.852,59969
551.094,694.103,59975
550.919,688.351,59950
550.744,682.595,60002
550.57,676.836,59912
550.395,671.073,60022
550.22,665.306,59988
550.046,659.536,60013
549.871,653.762,60046
549.696,647.985,60033
549.522,642.203,60058
549.347,636.418,60015
549.173,630.63,60050
548.998,624.837,59964
548.823,619.041,59969
548.649,613.242,59988
548.474,607.438,60009
548.299,601.631,59941
548.125,595.82,59966
547.95,590.006,60049
547.775,584.187,60043
547.601,578.365,60041
547.426,572.54,60008
547.252,566.71,60036
547.077,560.877,60033
546.902,555.041,60006
546.728,549.2,59941
546.553,543.356,60089
546.378,537.508,59933
546.204,531.656,60123
546.029,525.8,60000
545.854,519.941,60033
545.68,514.078,60066
545.505,508.211,60080
545.331,502.341,60035
545.156,496.467,60009
544.981,490.589,60008
544.807,484.707,60117
544.632,478.821,60051
544.457,472.932,59905
544.283,467.039,60023
544.108,461.142,59997
543.933,455.241,60094
543.759,449.337,59976
543.584,443.428,59915
543.41,437.516,60042
543.235,431.601,59949
543.06,425.681,60009
542.886,419.757,59984
542.711,413.83,60044
542.536,407.899,59952
542.362,401.964,59977
542.187,396.025,59928
542.012,390.083,60003
541.838,384.136,59916
541.663,378.186,59970
541.489,372.232,60017
541.314,366.274,59966
541.139,360.312,60038
540.965,354.347,59994
540.79,348.377,59931
540.615,342.404,60046
540.441,336.426,60027
540.266,330.445,59967
540.091,324.46,60016
539.917,318.472,59894
539.742,312.479,59968
539.568,306.482,60019
539.393,300.482,60024
539.218,294.478,60011
539.044,288.469,59953
538.869,282.457,59988
538.694,276.441,59978
538.52,270.421,60061
538.345,264.398,60016
538.17,258.37,59960
537.996,252.338,59987
537.821,246.303,59966
537.647,240.263,60021
537.472,234.22,59993
537.297,228.172,59985
537.123,222.121,60048
536.948,216.066,60054
536.773,210.007,60000
553.314,766.92,60020
553.139,761.214,59994
552.965,755.504,60016
552.79,749.791,59975
552.615,744.074,60080
552.441,738.354,60024
552.266,732.63,60021
552.091,726.902,60007
551.917,721.171,59935
551.742,715.436,60079
551.568,709.697,60042
551.393,703.955,59968
551.218,698.21,59976
551.044,692.46,60059
550.869,686.707,60037
550.694,680.95,60090
550.52,675.19,60037
550.345,669.426,60011
550.17,663.658,60003
549.996,657.887,60033
549.821,652.112,59996
549.647,646.333,59976
549.472,640.551,59989
549.297,634.765,59941
549.123,628.975,60004
548.948,623.182,60029
548.773,617.385,59953
548.599,611.584,59987
548.424,605.779,59975
548.249,599.971,59979
548.075,594.159,60016
547.9,588.344,60022
547.726,582.524,60036
547.551,576.701,60026
547.376,570.875,59914
547.202,565.044,60011
547.027,559.21,60026
546.852,553.372,60038
546.678,547.531,60004
546.503,541.685,59921
546.328,535.836,59987
546.154,529.983,59927
545.979,524.127,60052
545.805,518.266,59981
545.63,512.402,60028
545.455,506.535,59989
545.281,500.663,60015
545.106,494.788,60035
544.931,488.909,59981
544.757,483.026,59955
544.582,477.139,60012
544.407,471.249,60101
544.233,465.354,59924
544.058,459.456,59995
543.884,453.555,60041
543.709,447.649,59999
543.534,441.74,60017
543.36,435.827,59976
543.185,429.91,60004
543.01,423.989,59930
542.836,418.064,59975
542.661,412.136,60037
542.486,406.204,59954
542.312,400.268,60082
542.137,394.328,60079
541.963,388.384,60053
541.788,382.437,59969
541.613,376.485,60023
541.439,370.53,59963
541.264,364.571,59908
541.089,358.608,60058
540.915,352.641,60025
540.74,346.671,59959
540.565,340.696,60034
540.391,334.718,59907
540.216,328.736,60061
540.042,322.75,60012
539.867,316.76,60032
539.692,310.766,60039
539.518,304.768,59993
539.343,298.767,60046
539.168,292.761,59971
538.994,286.752,60077
538.819,280.739,60049
538.644,274.722,60044
538.47,268.701,60092
538.295,262.676,59951
538.121,256.647,59972
537.946,250.614,60014
537.771,244.578,60000
537.597,238.537,60031
537.422,232.492,59935
537.247,226.444,59944
537.073,220.392,60024
536.898,214.335,60001
536.723,208.275,60014
553.264,765.29,60030
553.089,759.583,59976
552.915,753.872,59979
552.74,748.158,59924
552.565,742.44,59988
552.391,736.719,60018
552.216,730.994,59938
552.042,725.265,60004
551.867,719.533,59945
551.692,713.797,60016
551.518,708.057,60073
551.343,702.314,59972
551.168,696.567,59905
550.994,690.817,59998
550.819,685.063,59982
550.644,679.305,59980
550.47,673.543,59985
550.295,667.778,60041
550.121,662.01,60037
549.946,656.237,60027
549.771,650.461,59964
549.597,644.681,59970
549.422,638.898,60012
549.247,633.111,59992
549.073,627.32,60045
548.898,621.526,59977
548.723,615.728,60009
548.549,609.926,60102
548.374,604.12,60029
548.2,598.311,59996
548.025,592.498,60059
547.85,586.681,60007
547.676,580.861,59927
547.501,575.037,60023
547.326,569.209,59983
547.152,563.378,60031
546.977,557.543,59997
546.802,551.704,59972
546.628,545.861,60013
546.453,540.014,59946
546.279,534.164,60031
546.104,528.31,60085
545.929,522.453,60054
545.755,516.591,59996
545.58,510.726,60027
545.405,504.857,60001
545.231,498.985,59990
545.056,493.108,60039
544.881,487.228,60019
544.707,481.344,60006
544.532,475.456,60048
544.358,469.565,59966
544.183,463.67,60037
544.008,457.771,60032
543.834,451.868,59875
543.659,445.961,59962
543.484,440.051,60003
543.31,434.136,59987
543.135,428.218,60006
542.96,422.296,59943
542.786,416.371,59951
542.611,410.441,59983
542.437,404.508,60032
542.262,398.571,59985
542.087,392.63,59914
541.913,386.685,60028
541.738,380.737,59968
541.563,374.784,60058
541.389,368.828,60022
541.214,362.868,59988
541.04,356.904,59939
540.865,350.936,59923
540.69,344.964,60022
540.516,338.989,59995
540.341,333.009,59939
540.166,327.026,60066
539.992,321.039,60073
539.817,315.048,60050
539.642,309.053,59997
539.468,303.054,59953
539.293,297.051,60024
539.119,291.045,59988
538.944,285.034,59989
538.769,279.02,60078
538.595,273.002,60044
538.42,266.98,59959
538.245,260.954,59929
538.071,254.924,59970
537.896,248.89,59977
537.721,242.852,59979
537.547,236.81,59975
537.372,230.765,60064
537.198,224.715,60004
537.023,218.662,59939
536.848,212.604,59970
536.674,206.543,59966
536.661,206.11,59985