File: tomke/20240809/raw_data/Si_onTiO2_80mA_30mW_30sec_5acc_517nm.txt
Wavelength(nm), Raman shift(cm^-1), Intensity(counts)
525.364,-194.586,108328
525.077,-204.986,109319
524.79,-215.398,110505
524.503,-225.821,111427
524.216,-236.256,112496
523.929,-246.702,115230
523.642,-257.159,125713
523.356,-267.628,185748
523.069,-278.109,354627
522.782,-288.6,462592
522.495,-299.104,481513
522.208,-309.619,484315
521.921,-320.145,478444
521.634,-330.684,474938
521.347,-341.233,471336
521.06,-351.795,466322
520.773,-362.368,459356
520.486,-372.952,451959
520.2,-383.548,447906
519.913,-394.156,445864
519.626,-404.776,442286
519.339,-415.408,436731
519.052,-426.051,427297
518.765,-436.706,420889
518.478,-447.373,414345
518.191,-458.051,415005
517.904,-468.742,409655
517.617,-479.444,407016
517.331,-490.158,407374
517.044,-500.884,404552
516.757,-511.622,397072
516.47,-522.372,394153
516.183,-533.134,392894
515.896,-543.907,388131
515.609,-554.693,385365
515.322,-565.491,381843
515.035,-576.301,379214
514.748,-587.123,377776
514.462,-597.957,373989
514.175,-608.803,370291
513.888,-619.661,366392
513.601,-630.531,360204
513.314,-641.413,357813
513.027,-652.308,352840
512.74,-663.215,347016
512.453,-674.134,344489
512.166,-685.065,338711
511.879,-696.008,331611
511.593,-706.964,326695
511.306,-717.932,321921
511.019,-728.913,316964
510.732,-739.905,312803
510.445,-750.91,307006
510.158,-761.928,302293
509.871,-772.958,295199
509.584,-784,290266
509.297,-795.055,284034
509.01,-806.122,280038
508.723,-817.201,276881
525.152,-202.272,102277
524.865,-212.681,103217
524.578,-223.101,104281
524.291,-233.532,105236
524.004,-243.976,106438
523.717,-254.43,111846
523.43,-264.896,141363
523.143,-275.373,257708
522.857,-285.862,364998
522.57,-296.363,390243
522.283,-306.875,393245
521.996,-317.398,391746
521.709,-327.933,387128
521.422,-338.48,385014
521.135,-349.038,381887
520.848,-359.608,375373
520.561,-370.19,368744
520.274,-380.783,366505
519.988,-391.388,361601
519.701,-402.005,362535
519.414,-412.633,355972
519.127,-423.273,350128
518.84,-433.925,342735
518.553,-444.589,337655
518.266,-455.264,335086
517.979,-465.952,333466
517.692,-476.651,331378
517.405,-487.362,331415
517.119,-498.085,332486
516.832,-508.82,324392
516.545,-519.566,320604
516.258,-530.325,319608
515.971,-541.096,316419
515.684,-551.878,314257
515.397,-562.673,311446
515.11,-573.48,308788
514.823,-584.298,307021
514.536,-595.129,304784
514.249,-605.972,302697
513.963,-616.827,298763
513.676,-627.694,296618
513.389,-638.573,291817
513.102,-649.465,289049
512.815,-660.368,284785
512.528,-671.284,280681
512.241,-682.212,277370
511.954,-693.152,271706
511.667,-704.105,267367
511.38,-715.07,264549
511.094,-726.047,259957
510.807,-737.036,257511
510.52,-748.038,252758
510.233,-759.052,248824
509.946,-770.079,243902
509.659,-781.118,238789
509.372,-792.17,235934
509.085,-803.233,231058
508.798,-814.31,228946
525.227,-199.558,99774
524.94,-209.964,100902
524.653,-220.381,101788
524.366,-230.81,102402
524.079,-241.25,103633
523.792,-251.702,107343
523.505,-262.165,123721
523.218,-272.639,206462
522.931,-283.125,321094
522.644,-293.622,360901
522.358,-304.131,365471
522.071,-314.652,362948
521.784,-325.184,359629
521.497,-335.728,356368
521.21,-346.283,354242
520.923,-356.85,350306
520.636,-367.428,344936
520.349,-378.019,340680
520.062,-388.62,337121
519.775,-399.234,335694
519.489,-409.859,331567
519.202,-420.496,325432
518.915,-431.145,319145
518.628,-441.806,315691
518.341,-452.478,312161
518.054,-463.163,310330
517.767,-473.859,308344
517.48,-484.567,305694
517.193,-495.286,310453
516.906,-506.018,302871
516.62,-516.762,298425
516.333,-527.517,296361
516.046,-538.285,294053
515.759,-549.064,291692
515.472,-559.856,290185
515.185,-570.659,286463
514.898,-581.475,286217
514.611,-592.303,283113
514.324,-603.142,281122
514.037,-613.994,278021
513.751,-624.858,274605
513.464,-635.734,270513
513.177,-646.622,268117
512.89,-657.523,265231
512.603,-668.435,261916
512.316,-679.36,258267
512.029,-690.297,253935
511.742,-701.247,250148
511.455,-712.208,246680
511.168,-723.182,243126
510.881,-734.168,240590
510.595,-745.167,236446
510.308,-756.178,232432
510.021,-767.201,228465
509.734,-778.237,224206
509.447,-789.285,220833
509.16,-800.346,217992
508.873,-811.419,213948
525.301,-196.846,101361
525.015,-207.249,102646
524.728,-217.663,102757
524.441,-228.088,104330
524.154,-238.526,105321
523.867,-248.974,107990
523.58,-259.434,119436
523.293,-269.905,182273
523.006,-280.388,314397
522.719,-290.883,376239
522.432,-301.389,386286
522.146,-311.906,385298
521.859,-322.435,382188
521.572,-332.976,378268
521.285,-343.528,375141
520.998,-354.092,371131
520.711,-364.668,365411
520.424,-375.255,359118
520.137,-385.854,356318
519.85,-396.464,355058
519.563,-407.086,352642
519.277,-417.72,345231
518.99,-428.366,339649
518.703,-439.024,334531
518.416,-449.693,330781
518.129,-460.374,327497
517.842,-471.067,325612
517.555,-481.772,324770
517.268,-492.489,325298
516.981,-503.217,322193
516.694,-513.958,317965
516.407,-524.71,313739
516.121,-535.475,311854
515.834,-546.251,308982
515.547,-557.039,306725
515.26,-567.84,304771
514.973,-578.652,302293
514.686,-589.477,299963
514.399,-600.313,298922
514.112,-611.162,295183
513.825,-622.023,291021
513.538,-632.896,287502
513.252,-643.781,283576
512.965,-654.678,280872
512.678,-665.587,278226
512.391,-676.509,273210
512.104,-687.443,269148
511.817,-698.389,265212
511.53,-709.347,261003
511.243,-720.318,258347
510.956,-731.301,253983
510.669,-742.297,250130
510.383,-753.304,246650
510.096,-764.325,242874
509.809,-775.357,238124
509.522,-786.402,233543
509.235,-797.459,230265
508.948,-808.529,226957
508.661,-819.612,223159
525.089,-204.534,99656
524.802,-214.945,100723
524.516,-225.368,101401
524.229,-235.802,102180
523.942,-246.247,104308
523.655,-256.704,111838
523.368,-267.173,150197
523.081,-277.653,267603
522.794,-288.144,343502
522.507,-298.647,358407
522.22,-309.161,360944
521.933,-319.687,355850
521.647,-330.225,353313
521.36,-340.774,352205
521.073,-351.335,348738
520.786,-361.908,342778
520.499,-372.492,337510
520.212,-383.088,333919
519.925,-393.695,332052
519.638,-404.314,330174
519.351,-414.945,325289
519.064,-425.588,317564
518.778,-436.242,313714
518.491,-446.909,309204
518.204,-457.587,306513
517.917,-468.277,305902
517.63,-478.978,303672
517.343,-489.692,304197
517.056,-500.417,304217
516.769,-511.155,295396
516.482,-521.904,292684
516.195,-532.665,291244
515.909,-543.439,288728
515.622,-554.224,287993
515.335,-565.021,284532
515.048,-575.831,283522
514.761,-586.652,281781
514.474,-597.485,280047
514.187,-608.331,276670
513.9,-619.188,273354
513.613,-630.058,269079
513.326,-640.94,266731
513.04,-651.834,263867
512.753,-662.74,260774
512.466,-673.659,257159
512.179,-684.589,253158
511.892,-695.532,249094
511.605,-706.488,244881
511.318,-717.455,241022
511.031,-728.435,239634
510.744,-739.427,236420
510.457,-750.432,231476
510.17,-761.448,226891
509.884,-772.478,224198
509.597,-783.52,219992
509.31,-794.574,216232
509.023,-805.64,213736
508.736,-816.719,210481
508.661,-819.612,208359