File: tomke/20240809/raw_data/Si_onTiO2_80mA_30mW_30sec_5acc_545nm.txt
Wavelength(nm), Raman shift(cm^-1), Intensity(counts)
553.364,768.549,294552
553.077,759.175,294178
552.79,749.791,293047
552.503,740.397,290489
552.216,730.994,289457
551.929,721.58,289038
551.642,712.157,289126
551.356,702.724,288822
551.069,693.282,288491
550.782,683.829,285781
550.495,674.367,284065
550.208,664.894,283157
549.921,655.412,281103
549.634,645.92,280897
549.347,636.418,280316
549.06,626.906,279660
548.773,617.385,279489
548.486,607.853,275841
548.2,598.311,272995
547.913,588.759,268428
547.626,579.197,265199
547.339,569.626,264192
547.052,560.044,264628
546.765,550.452,262905
546.478,540.85,261918
546.191,531.238,260127
545.904,521.616,256421
545.617,511.983,254554
545.331,502.341,261674
545.044,492.688,257672
544.757,483.026,253318
544.47,473.353,252331
544.183,463.67,250705
543.896,453.976,247103
543.609,444.273,245131
543.322,434.559,242660
543.035,424.835,241986
542.748,415.1,243528
542.462,405.356,243808
542.175,395.601,240385
541.888,385.836,237802
541.601,376.06,235681
541.314,366.274,234690
541.027,356.478,234366
540.74,346.671,232685
540.453,336.854,225736
540.166,327.026,220406
539.879,317.188,218609
539.593,307.339,221610
539.306,297.48,216178
539.019,287.611,201249
538.732,277.731,197953
538.445,267.84,166277
538.158,257.939,91561
537.871,248.028,68754
537.584,238.105,64981
537.297,228.172,64260
537.01,218.229,63931
536.723,208.275,63858
553.152,761.621,283565
552.865,752.24,283922
552.578,742.849,280420
552.291,733.448,278915
552.004,724.037,278411
551.717,714.616,277741
551.43,705.186,278542
551.143,695.746,278487
550.857,686.296,276551
550.57,676.836,274073
550.283,667.366,272128
549.996,657.887,270790
549.709,648.397,270354
549.422,638.898,270337
549.135,629.389,270549
548.848,619.869,269439
548.561,610.34,267244
548.274,600.801,264328
547.988,591.252,260568
547.701,581.693,257384
547.414,572.124,255782
547.127,562.544,254899
546.84,552.955,254716
546.553,543.356,253455
546.266,533.746,250489
545.979,524.127,249038
545.692,514.497,245865
545.405,504.857,250259
545.119,495.207,250682
544.832,485.547,244785
544.545,475.877,243546
544.258,466.197,242117
543.971,456.506,239757
543.684,446.805,236779
543.397,437.094,234264
543.11,427.373,232920
542.823,417.641,233923
542.536,407.899,234390
542.249,398.147,234181
541.963,388.384,231245
541.676,378.611,229176
541.389,368.828,226510
541.102,359.034,225521
540.815,349.23,224333
540.528,339.416,220408
540.241,329.591,213924
539.954,319.755,212075
539.667,309.91,213836
539.38,300.053,211083
539.094,290.186,198233
538.807,280.309,190881
538.52,270.421,178148
538.233,260.523,105034
537.946,250.614,70801
537.659,240.695,65407
537.372,230.765,64237
537.085,220.824,63691
536.798,210.873,63708
553.227,764.067,284585
552.94,754.688,283349
552.653,745.299,282742
552.366,735.901,279896
552.079,726.493,279299
551.792,717.075,279509
551.505,707.647,279500
551.218,698.21,279207
550.931,688.762,278727
550.644,679.305,276902
550.358,669.838,274909
550.071,660.361,271156
549.784,650.874,271409
549.497,641.377,270858
549.21,631.87,271272
548.923,622.354,271164
548.636,612.827,268100
548.349,603.291,266462
548.062,593.744,262719
547.775,584.187,258664
547.489,574.621,256353
547.202,565.044,256411
546.915,555.458,255088
546.628,545.861,253993
546.341,536.254,252129
546.054,526.637,250228
545.767,517.01,248113
545.48,507.373,249222
545.193,497.726,254506
544.906,488.068,247033
544.62,478.401,244914
544.333,468.723,244334
544.046,459.035,241390
543.759,449.337,237539
543.472,439.628,235231
543.185,429.91,234219
542.898,420.181,234273
542.611,410.441,236463
542.324,400.692,234644
542.037,390.932,231832
541.751,381.162,230032
541.464,371.381,226813
541.177,361.59,226819
540.89,351.789,225689
540.603,341.977,222949
540.316,332.155,216373
540.029,322.322,212624
539.742,312.479,213573
539.455,302.625,213609
539.168,292.761,204076
538.881,282.887,192542
538.595,273.002,189409
538.308,263.106,123667
538.021,253.2,74934
537.734,243.283,65997
537.447,233.356,64357
537.16,223.418,63908
536.873,213.47,63975
553.301,766.512,287639
553.015,757.136,286168
552.728,747.75,284016
552.441,738.354,282038
552.154,728.948,281285
551.867,719.533,280636
551.58,710.107,280010
551.293,700.672,279045
551.006,691.228,280624
550.719,681.773,276978
550.432,672.308,275052
550.146,662.834,274684
549.859,653.35,271661
549.572,643.855,271965
549.285,634.351,271907
548.998,624.837,271920
548.711,615.313,269618
548.424,605.779,268460
548.137,596.235,264534
547.85,586.681,261403
547.563,577.117,257954
547.277,567.543,256826
546.99,557.959,257477
546.703,548.365,256339
546.416,538.761,254568
546.129,529.147,251622
545.842,519.523,248495
545.555,509.888,249266
545.268,500.243,255568
544.981,490.589,248368
544.694,480.924,246300
544.407,471.249,244220
544.121,461.563,243468
543.834,451.868,240111
543.547,442.162,237467
543.26,432.446,235624
542.973,422.72,234947
542.686,412.983,236217
542.399,403.236,235587
542.112,393.479,234379
541.825,383.711,230937
541.538,373.933,228018
541.252,364.145,228040
540.965,354.347,227795
540.678,344.537,224380
540.391,334.718,218182
540.104,324.888,213830
539.817,315.048,213491
539.53,305.197,214184
539.243,295.336,207516
538.956,285.464,193905
538.669,275.582,192389
538.383,265.689,144584
538.096,255.785,81867
537.809,245.871,66891
537.522,235.947,64771
537.235,226.012,64153
536.948,216.066,63836
536.661,206.11,63657
553.089,759.583,287753
552.802,750.199,285211
552.516,740.806,283715
552.229,731.403,282549
551.942,721.99,280940
551.655,712.567,280885
551.368,703.135,280592
551.081,693.692,280712
550.794,684.24,279443
550.507,674.778,278532
550.22,665.306,275385
549.933,655.825,273338
549.647,646.333,272496
549.36,636.832,272496
549.073,627.32,273936
548.786,617.799,271757
548.499,608.267,269615
548.212,598.726,266114
547.925,589.175,262810
547.638,579.613,260720
547.351,570.042,258636
547.064,560.461,257781
546.778,550.869,257119
546.491,541.268,255484
546.204,531.656,253816
545.917,522.034,249243
545.63,512.402,248667
545.343,502.76,255693
545.056,493.108,251147
544.769,483.446,246523
544.482,473.774,246685
544.195,464.091,243209
543.909,454.398,240911
543.622,444.695,238530
543.335,434.981,235264
543.048,425.258,235799
542.761,415.524,237380
542.474,405.78,237750
542.187,396.025,235742
541.9,386.26,232871
541.613,376.485,229122
541.326,366.7,228468
541.04,356.904,228111
540.753,347.097,226457
540.466,337.281,220735
540.179,327.453,215104
539.892,317.616,214055
539.605,307.768,216161
539.318,297.909,211050
539.031,288.04,197974
538.744,278.161,193532
538.457,268.271,165519
538.17,258.37,93129
537.884,248.459,68607
537.597,238.537,64978
537.31,228.605,64160
537.023,218.662,63842
536.736,208.708,63769
536.661,206.11,63653