File: tomke/20240809/raw_data/Si_onTiO2_0mA_30mW_30sec_5acc_545nm.txt
Wavelength(nm), Raman shift(cm^-1), Intensity(counts)
553.364,768.549,59802
553.077,759.175,60195
552.79,749.791,60156
552.503,740.397,60215
552.216,730.994,60112
551.929,721.58,60049
551.642,712.157,60108
551.356,702.724,60184
551.069,693.282,60224
550.782,683.829,60254
550.495,674.367,60244
550.208,664.894,60226
549.921,655.412,60221
549.634,645.92,60215
549.347,636.418,60277
549.06,626.906,60337
548.773,617.385,60377
548.486,607.853,60253
548.2,598.311,60131
547.913,588.759,60171
547.626,579.197,60168
547.339,569.626,60191
547.052,560.044,60277
546.765,550.452,60353
546.478,540.85,60719
546.191,531.238,62218
545.904,521.616,114383
545.617,511.983,63480
545.331,502.341,60841
545.044,492.688,60565
544.757,483.026,60306
544.47,473.353,60236
544.183,463.67,60157
543.896,453.976,60233
543.609,444.273,60367
543.322,434.559,60412
543.035,424.835,60301
542.748,415.1,60416
542.462,405.356,60364
542.175,395.601,60347
541.888,385.836,60410
541.601,376.06,60411
541.314,366.274,60412
541.027,356.478,60373
540.74,346.671,60439
540.453,336.854,60501
540.166,327.026,60519
539.879,317.188,60670
539.593,307.339,60973
539.306,297.48,60976
539.019,287.611,60774
538.732,277.731,60657
538.445,267.84,60416
538.158,257.939,60141
537.871,248.028,59969
537.584,238.105,59910
537.297,228.172,60077
537.01,218.229,60035
536.723,208.275,60027
553.152,761.621,60128
552.865,752.24,60146
552.578,742.849,60173
552.291,733.448,60190
552.004,724.037,60073
551.717,714.616,60091
551.43,705.186,60213
551.143,695.746,60078
550.857,686.296,60218
550.57,676.836,60208
550.283,667.366,60379
549.996,657.887,60154
549.709,648.397,60195
549.422,638.898,60177
549.135,629.389,60445
548.848,619.869,60297
548.561,610.34,60327
548.274,600.801,60143
547.988,591.252,60170
547.701,581.693,60101
547.414,572.124,60189
547.127,562.544,60291
546.84,552.955,60377
546.553,543.356,60620
546.266,533.746,61500
545.979,524.127,87422
545.692,514.497,68584
545.405,504.857,60979
545.119,495.207,60554
544.832,485.547,60287
544.545,475.877,60303
544.258,466.197,60190
543.971,456.506,60152
543.684,446.805,60227
543.397,437.094,60327
543.11,427.373,60379
542.823,417.641,60348
542.536,407.899,60372
542.249,398.147,60346
541.963,388.384,60388
541.676,378.611,60498
541.389,368.828,60434
541.102,359.034,60356
540.815,349.23,60551
540.528,339.416,60572
540.241,329.591,60541
539.954,319.755,60669
539.667,309.91,60731
539.38,300.053,61101
539.094,290.186,60683
538.807,280.309,60521
538.52,270.421,60540
538.233,260.523,60055
537.946,250.614,59976
537.659,240.695,60112
537.372,230.765,59981
537.085,220.824,60010
536.798,210.873,60015
553.227,764.067,60119
552.94,754.688,60200
552.653,745.299,60114
552.366,735.901,60023
552.079,726.493,60055
551.792,717.075,60065
551.505,707.647,60061
551.218,698.21,60144
550.931,688.762,60236
550.644,679.305,60260
550.358,669.838,60348
550.071,660.361,60231
549.784,650.874,60259
549.497,641.377,60175
549.21,631.87,60396
548.923,622.354,60362
548.636,612.827,60239
548.349,603.291,60264
548.062,593.744,60145
547.775,584.187,60169
547.489,574.621,60174
547.202,565.044,60269
546.915,555.458,60285
546.628,545.861,60567
546.341,536.254,61087
546.054,526.637,67533
545.767,517.01,81692
545.48,507.373,61533
545.193,497.726,60646
544.906,488.068,60440
544.62,478.401,60365
544.333,468.723,60256
544.046,459.035,60170
543.759,449.337,60305
543.472,439.628,60338
543.185,429.91,60384
542.898,420.181,60425
542.611,410.441,60317
542.324,400.692,60352
542.037,390.932,60417
541.751,381.162,60369
541.464,371.381,60467
541.177,361.59,60347
540.89,351.789,60386
540.603,341.977,60408
540.316,332.155,60480
540.029,322.322,60622
539.742,312.479,60655
539.455,302.625,61024
539.168,292.761,63614
538.881,282.887,60723
538.595,273.002,60586
538.308,263.106,60304
538.021,253.2,60029
537.734,243.283,60060
537.447,233.356,59956
537.16,223.418,59944
536.873,213.47,59921
553.301,766.512,60142
553.015,757.136,60079
552.728,747.75,60187
552.441,738.354,60132
552.154,728.948,60156
551.867,719.533,60092
551.58,710.107,60074
551.293,700.672,60221
551.006,691.228,60180
550.719,681.773,60258
550.432,672.308,60202
550.146,662.834,60136
549.859,653.35,60243
549.572,643.855,60211
549.285,634.351,60222
548.998,624.837,60287
548.711,615.313,60180
548.424,605.779,60215
548.137,596.235,60159
547.85,586.681,60147
547.563,577.117,60156
547.277,567.543,60293
546.99,557.959,60218
546.703,548.365,60437
546.416,538.761,60678
546.129,529.147,63383
545.842,519.523,106498
545.555,509.888,62231
545.268,500.243,60719
544.981,490.589,60361
544.694,480.924,60355
544.407,471.249,60319
544.121,461.563,60220
543.834,451.868,60230
543.547,442.162,60355
543.26,432.446,60400
542.973,422.72,60358
542.686,412.983,60312
542.399,403.236,60389
542.112,393.479,60407
541.825,383.711,60431
541.538,373.933,60444
541.252,364.145,60286
540.965,354.347,60504
540.678,344.537,60540
540.391,334.718,60464
540.104,324.888,60513
539.817,315.048,60577
539.53,305.197,60852
539.243,295.336,60826
538.956,285.464,60568
538.669,275.582,60598
538.383,265.689,60274
538.096,255.785,60178
537.809,245.871,59983
537.522,235.947,60052
537.235,226.012,59983
536.948,216.066,59925
536.661,206.11,59969
553.089,759.583,60138
552.802,750.199,60118
552.516,740.806,60242
552.229,731.403,60177
551.942,721.99,60168
551.655,712.567,60186
551.368,703.135,60076
551.081,693.692,60206
550.794,684.24,60241
550.507,674.778,60232
550.22,665.306,60162
549.933,655.825,60192
549.647,646.333,60246
549.36,636.832,60265
549.073,627.32,60383
548.786,617.799,60248
548.499,608.267,60153
548.212,598.726,60169
547.925,589.175,60160
547.638,579.613,60156
547.351,570.042,60140
547.064,560.461,60255
546.778,550.869,60383
546.491,541.268,60723
546.204,531.656,61934
545.917,522.034,110281
545.63,512.402,64151
545.343,502.76,61002
545.056,493.108,60504
544.769,483.446,60405
544.482,473.774,60231
544.195,464.091,60202
543.909,454.398,60183
543.622,444.695,60276
543.335,434.981,60453
543.048,425.258,60448
542.761,415.524,60358
542.474,405.78,60323
542.187,396.025,60373
541.9,386.26,60341
541.613,376.485,60482
541.326,366.7,60486
541.04,356.904,60489
540.753,347.097,60442
540.466,337.281,60481
540.179,327.453,60518
539.892,317.616,60623
539.605,307.768,60960
539.318,297.909,61013
539.031,288.04,60757
538.744,278.161,60612
538.457,268.271,60506
538.17,258.37,60097
537.884,248.459,60100
537.597,238.537,59979
537.31,228.605,60067
537.023,218.662,59970
536.736,208.708,59983
536.661,206.11,60083