File: tomke/20240809/raw_data/Si_onTiO2_100mA_30mW_30sec_5acc_545nm_bg.txt
Wavelength(nm), Raman shift(cm^-1), Intensity(counts)
553.364,768.549,298727
553.077,759.175,298646
552.79,749.791,296346
552.503,740.397,294801
552.216,730.994,293282
551.929,721.58,293381
551.642,712.157,293668
551.356,702.724,292367
551.069,693.282,291987
550.782,683.829,290669
550.495,674.367,287614
550.208,664.894,285987
549.921,655.412,283918
549.634,645.92,283481
549.347,636.418,283071
549.06,626.906,283500
548.773,617.385,282919
548.486,607.853,277350
548.2,598.311,275162
547.913,588.759,271010
547.626,579.197,268851
547.339,569.626,266595
547.052,560.044,265451
546.765,550.452,264928
546.478,540.85,262387
546.191,531.238,259992
545.904,521.616,256486
545.617,511.983,253727
545.331,502.341,251385
545.044,492.688,250673
544.757,483.026,251018
544.47,473.353,250906
544.183,463.67,250838
543.896,453.976,247199
543.609,444.273,244148
543.322,434.559,241742
543.035,424.835,241878
542.748,415.1,242113
542.462,405.356,242630
542.175,395.601,240311
541.888,385.836,237338
541.601,376.06,234447
541.314,366.274,232693
541.027,356.478,233188
540.74,346.671,230447
540.453,336.854,225095
540.166,327.026,218294
539.879,317.188,217235
539.593,307.339,219159
539.306,297.48,214565
539.019,287.611,198604
538.732,277.731,196022
538.445,267.84,165574
538.158,257.939,92653
537.871,248.028,69494
537.584,238.105,65597
537.297,228.172,64597
537.01,218.229,64379
536.723,208.275,64155
553.152,761.621,314605
552.865,752.24,311174
552.578,742.849,309898
552.291,733.448,310083
552.004,724.037,307891
551.717,714.616,306984
551.43,705.186,305826
551.143,695.746,308455
550.857,686.296,306587
550.57,676.836,303243
550.283,667.366,300578
549.996,657.887,298891
549.709,648.397,296862
549.422,638.898,296887
549.135,629.389,296997
548.848,619.869,297131
548.561,610.34,292943
548.274,600.801,291045
547.988,591.252,286114
547.701,581.693,283185
547.414,572.124,279947
547.127,562.544,278901
546.84,552.955,277706
546.553,543.356,277466
546.266,533.746,273069
545.979,524.127,269621
545.692,514.497,265867
545.405,504.857,263747
545.119,495.207,263047
544.832,485.547,263276
544.545,475.877,263461
544.258,466.197,262610
543.971,456.506,260005
543.684,446.805,256637
543.397,437.094,254282
543.11,427.373,253253
542.823,417.641,254113
542.536,407.899,253174
542.249,398.147,253430
541.963,388.384,250452
541.676,378.611,246488
541.389,368.828,243974
541.102,359.034,245143
540.815,349.23,241800
540.528,339.416,236890
540.241,329.591,231026
539.954,319.755,227830
539.667,309.91,228998
539.38,300.053,227228
539.094,290.186,212425
538.807,280.309,204380
538.52,270.421,190710
538.233,260.523,110920
537.946,250.614,72739
537.659,240.695,66200
537.372,230.765,64955
537.085,220.824,64504
536.798,210.873,64479
553.227,764.067,317622
552.94,754.688,315422
552.653,745.299,314876
552.366,735.901,312130
552.079,726.493,311298
551.792,717.075,311909
551.505,707.647,310831
551.218,698.21,311164
550.931,688.762,308257
550.644,679.305,307017
550.358,669.838,304191
550.071,660.361,300616
549.784,650.874,299943
549.497,641.377,299991
549.21,631.87,300685
548.923,622.354,299912
548.636,612.827,297537
548.349,603.291,293874
548.062,593.744,290452
547.775,584.187,286609
547.489,574.621,282970
547.202,565.044,281676
546.915,555.458,280928
546.628,545.861,280691
546.341,536.254,277736
546.054,526.637,273549
545.767,517.01,270792
545.48,507.373,267933
545.193,497.726,266869
544.906,488.068,265521
544.62,478.401,267287
544.333,468.723,265946
544.046,459.035,263781
543.759,449.337,260467
543.472,439.628,256807
543.185,429.91,256438
542.898,420.181,255873
542.611,410.441,256201
542.324,400.692,255092
542.037,390.932,253682
541.751,381.162,249728
541.464,371.381,247615
541.177,361.59,247125
540.89,351.789,245751
540.603,341.977,241682
540.316,332.155,234055
540.029,322.322,229808
539.742,312.479,231284
539.455,302.625,230941
539.168,292.761,219159
538.881,282.887,207067
538.595,273.002,202848
538.308,263.106,131959
538.021,253.2,77516
537.734,243.283,66935
537.447,233.356,65301
537.16,223.418,64850
536.873,213.47,64592
553.301,766.512,309036
553.015,757.136,308405
552.728,747.75,307893
552.441,738.354,305329
552.154,728.948,304043
551.867,719.533,302822
551.58,710.107,303205
551.293,700.672,301475
551.006,691.228,301744
550.719,681.773,300233
550.432,672.308,297874
550.146,662.834,294521
549.859,653.35,292512
549.572,643.855,293091
549.285,634.351,292808
548.998,624.837,292573
548.711,615.313,291292
548.424,605.779,288174
548.137,596.235,284733
547.85,586.681,280239
547.563,577.117,275961
547.277,567.543,274740
546.99,557.959,274815
546.703,548.365,273578
546.416,538.761,271255
546.129,529.147,268566
545.842,519.523,263432
545.555,509.888,262364
545.268,500.243,259458
544.981,490.589,259095
544.694,480.924,261206
544.407,471.249,259253
544.121,461.563,257494
543.834,451.868,254500
543.547,442.162,251864
543.26,432.446,250176
542.973,422.72,249997
542.686,412.983,251074
542.399,403.236,250539
542.112,393.479,247349
541.825,383.711,243756
541.538,373.933,241705
541.252,364.145,240761
540.965,354.347,240688
540.678,344.537,237255
540.391,334.718,230544
540.104,324.888,225482
539.817,315.048,224954
539.53,305.197,225494
539.243,295.336,218029
538.956,285.464,204294
538.669,275.582,202306
538.383,265.689,152169
538.096,255.785,84607
537.809,245.871,68056
537.522,235.947,65396
537.235,226.012,64807
536.948,216.066,64438
536.661,206.11,64324
553.089,759.583,307030
552.802,750.199,305465
552.516,740.806,303759
552.229,731.403,301830
551.942,721.99,301119
551.655,712.567,301917
551.368,703.135,302481
551.081,693.692,299374
550.794,684.24,299224
550.507,674.778,295427
550.22,665.306,292692
549.933,655.825,291448
549.647,646.333,291164
549.36,636.832,290759
549.073,627.32,290634
548.786,617.799,291027
548.499,608.267,287380
548.212,598.726,282773
547.925,589.175,278210
547.638,579.613,275983
547.351,570.042,273593
547.064,560.461,273014
546.778,550.869,272358
546.491,541.268,269582
546.204,531.656,266486
545.917,522.034,263328
545.63,512.402,260332
545.343,502.76,258377
545.056,493.108,257463
544.769,483.446,257186
544.482,473.774,259162
544.195,464.091,256257
543.909,454.398,253948
543.622,444.695,251619
543.335,434.981,249093
543.048,425.258,248322
542.761,415.524,248440
542.474,405.78,248496
542.187,396.025,247110
541.9,386.26,243990
541.613,376.485,240811
541.326,366.7,239895
541.04,356.904,239397
540.753,347.097,236400
540.466,337.281,231433
540.179,327.453,224350
539.892,317.616,222937
539.605,307.768,224855
539.318,297.909,219874
539.031,288.04,205096
538.744,278.161,199835
538.457,268.271,172589
538.17,258.37,96428
537.884,248.459,69713
537.597,238.537,65841
537.31,228.605,64891
537.023,218.662,64365
536.736,208.708,64446
536.661,206.11,64316