File: tomke/20240809/raw_data/Si_onTiO2_0mA_30mW_30sec_4acc_545nm.txt
Wavelength(nm), Raman shift(cm^-1), Intensity(counts)
552.12,727.839,59880
551.929,721.567,60015
551.738,715.29,60148
551.547,709.009,60157
551.355,702.723,60117
551.164,696.433,60098
550.973,690.139,60178
550.782,683.84,60114
550.591,677.537,60216
550.4,671.23,60208
550.209,664.918,60245
550.017,658.602,60249
549.826,652.282,60224
549.635,645.957,60296
549.444,639.627,60247
549.253,633.294,60332
549.062,626.955,60290
548.871,620.613,60314
548.679,614.266,60348
548.488,607.914,60519
548.297,601.559,60376
548.106,595.198,60371
547.915,588.834,60268
547.724,582.464,60270
547.533,576.091,60262
547.341,569.713,60162
547.15,563.33,60233
546.959,556.943,60264
546.768,550.552,60263
546.577,544.156,60370
546.386,537.756,60560
546.195,531.351,60950
546.003,524.941,62069
545.812,518.528,89681
545.621,512.109,76505
545.43,505.686,61914
545.239,499.259,60791
545.048,492.827,60469
544.857,486.391,60454
544.666,479.95,60259
544.474,473.505,60248
544.283,467.055,60225
544.092,460.6,60180
543.901,454.141,60316
543.71,447.678,60395
543.519,441.21,60412
543.328,434.737,60392
543.136,428.26,60398
542.945,421.778,60459
542.754,415.292,60336
542.563,408.801,60462
542.372,402.306,60473
542.181,395.806,60361
541.99,389.301,60520
541.798,382.792,60524
541.607,376.278,60502
541.416,369.76,60558
541.225,363.237,60479
541.034,356.709,60636
540.843,350.177,60875
540.652,343.64,60812
540.46,337.099,60769
540.269,330.552,61165
540.078,324.002,60913
539.887,317.446,60789
539.696,310.886,60647
539.505,304.322,60790
539.314,297.752,60651
539.122,291.178,60149
538.931,284.6,59977
538.74,278.016,60005
538.549,271.429,59983
538.358,264.836,60023
538.167,258.239,60065
537.976,251.637,59996
552.014,724.355,60141
551.823,718.08,60037
551.632,711.801,60150
551.44,705.517,60101
551.249,699.229,60111
551.058,692.937,60118
550.867,686.64,60184
550.676,680.339,60046
550.485,674.034,60199
550.294,667.724,60226
550.102,661.41,60244
549.911,655.091,60274
549.72,648.768,60392
549.529,642.441,60262
549.338,636.109,60197
549.147,629.773,60323
548.956,623.432,60279
548.764,617.087,60399
548.573,610.738,60368
548.382,604.384,60395
548.191,598.026,60372
548,591.663,60328
547.809,585.296,60168
547.618,578.924,60203
547.426,572.548,60121
547.235,566.168,60219
547.044,559.783,60219
546.853,553.393,60313
546.662,546.999,60308
546.471,540.601,60482
546.28,534.198,60593
546.088,527.791,61214
545.897,521.379,65868
545.706,514.962,111483
545.515,508.542,63803
545.324,502.116,61112
545.133,495.686,60605
544.942,489.252,60544
544.75,482.813,60366
544.559,476.37,60226
544.368,469.922,60197
544.177,463.47,60156
543.986,457.013,60302
543.795,450.551,60364
543.604,444.085,60359
543.412,437.614,60467
543.221,431.139,60457
543.03,424.66,60352
542.839,418.175,60398
542.648,411.686,60484
542.457,405.193,60562
542.266,398.695,60341
542.074,392.193,60359
541.883,385.685,60501
541.692,379.174,60397
541.501,372.657,60546
541.31,366.136,60587
541.119,359.611,60624
540.928,353.081,60750
540.736,346.546,61014
540.545,340.006,60813
540.354,333.462,60803
540.163,326.914,61063
539.972,320.36,60879
539.781,313.802,60725
539.59,307.24,60662
539.398,300.673,60775
539.207,294.101,60360
539.016,287.524,60067
538.825,280.943,59988
538.634,274.357,59901
538.443,267.766,59934
538.252,261.171,60013
538.06,254.571,60052
552.099,727.142,60058
551.908,720.869,60179
551.717,714.592,60118
551.525,708.31,60121
551.334,702.024,60086
551.143,695.734,60103
550.952,689.439,60153
550.761,683.14,60021
550.57,676.837,60158
550.379,670.529,60158
550.187,664.217,60130
549.996,657.9,60253
549.805,651.579,60294
549.614,645.254,60325
549.423,638.924,60257
549.232,632.589,60298
549.041,626.251,60331
548.849,619.908,60262
548.658,613.56,60410
548.467,607.208,60283
548.276,600.852,60399
548.085,594.491,60345
547.894,588.126,60298
547.703,581.756,60228
547.511,575.382,60284
547.32,569.004,60179
547.129,562.621,60037
546.938,556.233,60247
546.747,549.841,60278
546.556,543.445,60420
546.365,537.044,60607
546.173,530.639,60923
545.982,524.229,62530
545.791,517.815,101160
545.6,511.396,72381
545.409,504.973,61696
545.218,498.545,60788
545.027,492.112,60528
544.835,485.676,60377
544.644,479.234,60238
544.453,472.788,60276
544.262,466.338,60167
544.071,459.883,60190
543.88,453.423,60308
543.689,446.959,60402
543.497,440.491,60408
543.306,434.018,60440
543.115,427.54,60377
542.924,421.058,60351
542.733,414.571,60391
542.542,408.08,60476
542.351,401.584,60491
542.159,395.083,60419
541.968,388.578,60401
541.777,382.068,60494
541.586,375.554,60462
541.395,369.035,60511
541.204,362.512,60625
541.013,355.983,60668
540.821,349.451,60880
540.63,342.913,60786
540.439,336.371,60813
540.248,329.825,61176
540.057,323.274,60805
539.866,316.718,60645
539.675,310.157,60808
539.483,303.592,60773
539.292,297.022,60497
539.101,290.448,60113
538.91,283.869,60013
538.719,277.285,59963
538.528,270.696,60037
538.337,264.103,60027
538.145,257.505,59952
537.954,250.903,59963
551.993,723.658,60059
551.801,717.383,60216
551.61,711.103,60132
551.419,704.819,60103
551.228,698.53,60154
551.037,692.238,60165
550.846,685.94,60211
550.655,679.639,60101
550.463,673.333,60131
550.272,667.023,60270
550.081,660.708,60241
549.89,654.389,60321
549.699,648.065,60216
549.508,641.738,60270
549.317,635.405,60258
549.125,629.069,60290
548.934,622.727,60435
548.743,616.382,60352
548.552,610.032,60410
548.361,603.678,60460
548.17,597.319,60328
547.979,590.956,60378
547.787,584.588,60287
547.596,578.216,60229
547.405,571.839,60237
547.214,565.458,60224
547.023,559.073,60352
546.832,552.683,60232
546.641,546.288,60304
546.449,539.89,60480
546.258,533.486,60648
546.067,527.078,61399
545.876,520.666,68133
545.685,514.249,100507
545.494,507.828,62925
545.303,501.402,61098
545.111,494.972,60678
544.92,488.537,60475
544.729,482.098,60318
544.538,475.654,60214
544.347,469.205,60236
544.156,462.752,60223
543.965,456.295,60300
543.774,449.833,60303
543.582,443.366,60444
543.391,436.895,60483
543.2,430.42,60466
543.009,423.939,60440
542.818,417.455,60353
542.627,410.965,60401
542.436,404.471,60575
542.244,397.973,60411
542.053,391.47,60522
541.862,384.962,60471
541.671,378.45,60522
541.48,371.933,60552
541.289,365.411,60512
541.098,358.885,60617
540.906,352.355,60810
540.715,345.819,60921
540.524,339.28,60819
540.333,332.735,60915
540.142,326.186,61058
539.951,319.632,60778
539.76,313.074,60675
539.568,306.51,60786
539.377,299.943,60681
539.186,293.37,60247
538.995,286.793,60094
538.804,280.211,60040
538.613,273.625,60040
538.422,267.034,60065
538.23,260.438,59966
538.039,253.838,59961
537.901,249.068,59965