File: tomke/20240809/raw_data/Si_onTiO2_60mA_30mW_30sec_5acc_517nm_bg.txt
Wavelength(nm), Raman shift(cm^-1), Intensity(counts)
525.364,-194.586,72028
525.077,-204.986,72716
524.79,-215.398,72712
524.503,-225.821,72891
524.216,-236.256,73052
523.929,-246.702,73597
523.642,-257.159,74961
523.356,-267.628,82512
523.069,-278.109,103689
522.782,-288.6,116203
522.495,-299.104,118377
522.208,-309.619,118982
521.921,-320.145,117992
521.634,-330.684,117444
521.347,-341.233,116479
521.06,-351.795,115919
520.773,-362.368,114512
520.486,-372.952,113449
520.2,-383.548,112283
519.913,-394.156,111693
519.626,-404.776,111181
519.339,-415.408,109917
519.052,-426.051,108663
518.765,-436.706,107560
518.478,-447.373,106392
518.191,-458.051,106104
517.904,-468.742,104955
517.617,-479.444,103883
517.331,-490.158,103667
517.044,-500.884,102961
516.757,-511.622,102730
516.47,-522.372,102104
516.183,-533.134,102177
515.896,-543.907,101538
515.609,-554.693,101381
515.322,-565.491,100981
515.035,-576.301,100806
514.748,-587.123,99711
514.462,-597.957,100049
514.175,-608.803,99229
513.888,-619.661,98608
513.601,-630.531,98336
513.314,-641.413,97251
513.027,-652.308,96509
512.74,-663.215,96617
512.453,-674.134,95495
512.166,-685.065,95001
511.879,-696.008,94621
511.593,-706.964,93707
511.306,-717.932,92868
511.019,-728.913,92034
510.732,-739.905,91283
510.445,-750.91,91200
510.158,-761.928,89901
509.871,-772.958,89437
509.584,-784,88729
509.297,-795.055,88054
509.01,-806.122,87501
508.723,-817.201,86725
525.152,-202.272,72618
524.865,-212.681,73091
524.578,-223.101,73487
524.291,-233.532,73615
524.004,-243.976,73791
523.717,-254.43,74621
523.43,-264.896,80534
523.143,-275.373,99919
522.857,-285.862,117429
522.57,-296.363,122188
522.283,-306.875,122298
521.996,-317.398,121672
521.709,-327.933,120644
521.422,-338.48,119601
521.135,-349.038,119718
520.848,-359.608,118042
520.561,-370.19,117057
520.274,-380.783,116295
519.988,-391.388,115030
519.701,-402.005,114552
519.414,-412.633,113676
519.127,-423.273,112426
518.84,-433.925,110679
518.553,-444.589,109493
518.266,-455.264,108745
517.979,-465.952,108275
517.692,-476.651,107480
517.405,-487.362,106715
517.119,-498.085,106086
516.832,-508.82,105695
516.545,-519.566,105490
516.258,-530.325,105100
515.971,-541.096,104967
515.684,-551.878,104369
515.397,-562.673,103531
515.11,-573.48,102908
514.823,-584.298,102978
514.536,-595.129,102888
514.249,-605.972,102316
513.963,-616.827,101712
513.676,-627.694,100589
513.389,-638.573,99640
513.102,-649.465,99451
512.815,-660.368,98708
512.528,-671.284,97991
512.241,-682.212,97190
511.954,-693.152,96987
511.667,-704.105,95739
511.38,-715.07,94891
511.094,-726.047,94912
510.807,-737.036,94235
510.52,-748.038,93001
510.233,-759.052,92483
509.946,-770.079,91878
509.659,-781.118,90982
509.372,-792.17,89712
509.085,-803.233,89751
508.798,-814.31,88902
525.227,-199.558,72339
524.94,-209.964,72910
524.653,-220.381,73330
524.366,-230.81,73264
524.079,-241.25,73517
523.792,-251.702,74457
523.505,-262.165,77522
523.218,-272.639,92973
522.931,-283.125,113640
522.644,-293.622,120496
522.358,-304.131,120935
522.071,-314.652,120613
521.784,-325.184,120086
521.497,-335.728,140790
521.21,-346.283,118154
520.923,-356.85,117463
520.636,-367.428,116028
520.349,-378.019,114748
520.062,-388.62,114678
519.775,-399.234,113476
519.489,-409.859,113066
519.202,-420.496,110864
518.915,-431.145,110054
518.628,-441.806,109015
518.341,-452.478,107619
518.054,-463.163,106859
517.767,-473.859,106309
517.48,-484.567,105607
517.193,-495.286,105408
516.906,-506.018,104444
516.62,-516.762,104869
516.333,-527.517,104179
516.046,-538.285,103940
515.759,-549.064,103138
515.472,-559.856,103123
515.185,-570.659,102890
514.898,-581.475,101955
514.611,-592.303,101901
514.324,-603.142,101059
514.037,-613.994,101010
513.751,-624.858,99923
513.464,-635.734,99250
513.177,-646.622,98393
512.89,-657.523,97953
512.603,-668.435,97381
512.316,-679.36,97074
512.029,-690.297,95672
511.742,-701.247,95137
511.455,-712.208,94797
511.168,-723.182,93734
510.881,-734.168,93180
510.595,-745.167,92497
510.308,-756.178,91819
510.021,-767.201,91659
509.734,-778.237,90219
509.447,-789.285,89967
509.16,-800.346,89278
508.873,-811.419,88745
525.301,-196.846,65625
525.015,-207.249,65868
524.728,-217.663,65898
524.441,-228.088,66048
524.154,-238.526,66141
523.867,-248.974,66152
523.58,-259.434,66835
523.293,-269.905,70017
523.006,-280.388,76056
522.719,-290.883,78845
522.432,-301.389,79249
522.146,-311.906,79163
521.859,-322.435,78489
521.572,-332.976,78606
521.285,-343.528,78264
520.998,-354.092,77831
520.711,-364.668,77005
520.424,-375.255,76670
520.137,-385.854,76569
519.85,-396.464,76354
519.563,-407.086,75985
519.277,-417.72,75483
518.99,-428.366,74760
518.703,-439.024,74298
518.416,-449.693,73859
518.129,-460.374,73690
517.842,-471.067,73279
517.555,-481.772,73218
517.268,-492.489,72995
516.981,-503.217,72528
516.694,-513.958,72540
516.407,-524.71,72341
516.121,-535.475,72294
515.834,-546.251,72351
515.547,-557.039,72241
515.26,-567.84,71972
514.973,-578.652,71932
514.686,-589.477,71959
514.399,-600.313,71683
514.112,-611.162,71555
513.825,-622.023,71136
513.538,-632.896,71329
513.252,-643.781,70681
512.965,-654.678,70735
512.678,-665.587,70810
512.391,-676.509,70340
512.104,-687.443,70061
511.817,-698.389,69835
511.53,-709.347,69826
511.243,-720.318,69554
510.956,-731.301,69555
510.669,-742.297,69432
510.383,-753.304,69063
510.096,-764.325,69026
509.809,-775.357,68729
509.522,-786.402,68473
509.235,-797.459,68284
508.948,-808.529,67979
508.661,-819.612,67942
525.089,-204.534,64577
524.802,-214.945,64724
524.516,-225.368,64802
524.229,-235.802,64736
523.942,-246.247,64790
523.655,-256.704,65101
523.368,-267.173,66546
523.081,-277.653,70855
522.794,-288.144,73645
522.507,-298.647,74061
522.22,-309.161,74046
521.933,-319.687,73719
521.647,-330.225,73395
521.36,-340.774,73303
521.073,-351.335,73113
520.786,-361.908,72850
520.499,-372.492,72509
520.212,-383.088,72107
519.925,-393.695,71915
519.638,-404.314,71571
519.351,-414.945,71304
519.064,-425.588,71087
518.778,-436.242,70521
518.491,-446.909,70179
518.204,-457.587,69990
517.917,-468.277,69903
517.63,-478.978,69738
517.343,-489.692,69406
517.056,-500.417,69349
516.769,-511.155,69074
516.482,-521.904,69116
516.195,-532.665,69088
515.909,-543.439,68976
515.622,-554.224,68779
515.335,-565.021,68835
515.048,-575.831,68447
514.761,-586.652,68685
514.474,-597.485,68531
514.187,-608.331,68565
513.9,-619.188,68080
513.613,-630.058,67944
513.326,-640.94,68060
513.04,-651.834,67616
512.753,-662.74,67829
512.466,-673.659,67642
512.179,-684.589,67390
511.892,-695.532,67176
511.605,-706.488,66959
511.318,-717.455,66828
511.031,-728.435,66996
510.744,-739.427,66727
510.457,-750.432,66530
510.17,-761.448,66533
509.884,-772.478,66355
509.597,-783.52,66194
509.31,-794.574,66051
509.023,-805.64,65966
508.736,-816.719,65852
508.661,-819.612,65852