File: tomke/20240809/raw_data/Si_onTiO2_40mA_30mW_30sec_5acc_517nm_bg.txt
Wavelength(nm), Raman shift(cm^-1), Intensity(counts)
525.364,-194.586,62250
525.077,-204.986,62518
524.79,-215.398,62777
524.503,-225.821,62766
524.216,-236.256,62751
523.929,-246.702,62768
523.642,-257.159,62931
523.356,-267.628,63514
523.069,-278.109,65369
522.782,-288.6,66386
522.495,-299.104,66591
522.208,-309.619,66547
521.921,-320.145,66446
521.634,-330.684,66150
521.347,-341.233,65990
521.06,-351.795,65942
520.773,-362.368,65828
520.486,-372.952,65907
520.2,-383.548,65719
519.913,-394.156,65558
519.626,-404.776,65204
519.339,-415.408,65132
519.052,-426.051,64806
518.765,-436.706,64765
518.478,-447.373,64493
518.191,-458.051,64385
517.904,-468.742,64282
517.617,-479.444,64171
517.331,-490.158,64099
517.044,-500.884,64058
516.757,-511.622,63925
516.47,-522.372,63985
516.183,-533.134,63926
515.896,-543.907,63961
515.609,-554.693,63745
515.322,-565.491,63549
515.035,-576.301,63810
514.748,-587.123,63678
514.462,-597.957,63548
514.175,-608.803,63464
513.888,-619.661,63564
513.601,-630.531,63635
513.314,-641.413,63447
513.027,-652.308,63431
512.74,-663.215,63337
512.453,-674.134,63154
512.166,-685.065,63292
511.879,-696.008,63146
511.593,-706.964,63245
511.306,-717.932,63123
511.019,-728.913,62995
510.732,-739.905,63089
510.445,-750.91,62846
510.158,-761.928,62724
509.871,-772.958,62731
509.584,-784,62723
509.297,-795.055,62672
509.01,-806.122,62447
508.723,-817.201,62533
525.152,-202.272,62701
524.865,-212.681,62682
524.578,-223.101,62787
524.291,-233.532,62918
524.004,-243.976,62814
523.717,-254.43,62886
523.43,-264.896,63470
523.143,-275.373,64956
522.857,-285.862,66393
522.57,-296.363,66602
522.283,-306.875,66799
521.996,-317.398,66635
521.709,-327.933,66469
521.422,-338.48,66369
521.135,-349.038,66258
520.848,-359.608,66264
520.561,-370.19,66070
520.274,-380.783,65794
519.988,-391.388,65602
519.701,-402.005,65622
519.414,-412.633,65252
519.127,-423.273,65124
518.84,-433.925,64862
518.553,-444.589,64709
518.266,-455.264,64636
517.979,-465.952,64358
517.692,-476.651,64227
517.405,-487.362,64247
517.119,-498.085,64021
516.832,-508.82,64153
516.545,-519.566,64155
516.258,-530.325,64081
515.971,-541.096,63946
515.684,-551.878,63933
515.397,-562.673,63807
515.11,-573.48,63933
514.823,-584.298,63666
514.536,-595.129,63789
514.249,-605.972,63644
513.963,-616.827,63715
513.676,-627.694,63651
513.389,-638.573,63507
513.102,-649.465,63499
512.815,-660.368,63371
512.528,-671.284,63407
512.241,-682.212,63250
511.954,-693.152,63311
511.667,-704.105,63108
511.38,-715.07,63037
511.094,-726.047,62852
510.807,-737.036,62920
510.52,-748.038,62984
510.233,-759.052,62936
509.946,-770.079,63020
509.659,-781.118,62841
509.372,-792.17,62676
509.085,-803.233,62513
508.798,-814.31,62740
525.227,-199.558,62588
524.94,-209.964,62685
524.653,-220.381,62550
524.366,-230.81,62677
524.079,-241.25,62823
523.792,-251.702,63005
523.505,-262.165,63222
523.218,-272.639,64450
522.931,-283.125,66261
522.644,-293.622,66634
522.358,-304.131,66823
522.071,-314.652,66414
521.784,-325.184,66613
521.497,-335.728,66372
521.21,-346.283,66251
520.923,-356.85,66119
520.636,-367.428,65996
520.349,-378.019,65688
520.062,-388.62,65403
519.775,-399.234,65622
519.489,-409.859,65318
519.202,-420.496,65195
518.915,-431.145,64884
518.628,-441.806,64803
518.341,-452.478,64511
518.054,-463.163,64401
517.767,-473.859,64391
517.48,-484.567,64218
517.193,-495.286,64207
516.906,-506.018,64160
516.62,-516.762,64017
516.333,-527.517,64109
516.046,-538.285,63788
515.759,-549.064,63998
515.472,-559.856,63920
515.185,-570.659,63824
514.898,-581.475,63744
514.611,-592.303,63709
514.324,-603.142,63644
514.037,-613.994,63678
513.751,-624.858,63544
513.464,-635.734,63513
513.177,-646.622,63403
512.89,-657.523,63239
512.603,-668.435,63417
512.316,-679.36,63387
512.029,-690.297,63284
511.742,-701.247,63229
511.455,-712.208,62901
511.168,-723.182,63148
510.881,-734.168,63053
510.595,-745.167,62896
510.308,-756.178,62815
510.021,-767.201,62822
509.734,-778.237,62643
509.447,-789.285,62714
509.16,-800.346,62673
508.873,-811.419,62606
525.301,-196.846,62614
525.015,-207.249,62713
524.728,-217.663,62785
524.441,-228.088,62782
524.154,-238.526,62796
523.867,-248.974,62895
523.58,-259.434,62956
523.293,-269.905,64035
523.006,-280.388,65862
522.719,-290.883,66581
522.432,-301.389,66794
522.146,-311.906,66853
521.859,-322.435,66530
521.572,-332.976,66485
521.285,-343.528,66185
520.998,-354.092,66157
520.711,-364.668,65968
520.424,-375.255,65834
520.137,-385.854,65803
519.85,-396.464,65465
519.563,-407.086,65544
519.277,-417.72,65207
518.99,-428.366,65022
518.703,-439.024,64881
518.416,-449.693,64595
518.129,-460.374,64488
517.842,-471.067,64351
517.555,-481.772,64223
517.268,-492.489,64188
516.981,-503.217,64177
516.694,-513.958,64143
516.407,-524.71,63897
516.121,-535.475,63969
515.834,-546.251,63971
515.547,-557.039,63822
515.26,-567.84,63821
514.973,-578.652,63912
514.686,-589.477,63730
514.399,-600.313,63724
514.112,-611.162,63688
513.825,-622.023,63554
513.538,-632.896,63554
513.252,-643.781,63503
512.965,-654.678,63575
512.678,-665.587,63342
512.391,-676.509,63301
512.104,-687.443,63154
511.817,-698.389,63186
511.53,-709.347,63093
511.243,-720.318,63036
510.956,-731.301,63104
510.669,-742.297,63067
510.383,-753.304,62927
510.096,-764.325,62880
509.809,-775.357,62645
509.522,-786.402,62809
509.235,-797.459,62734
508.948,-808.529,62564
508.661,-819.612,62563
525.089,-204.534,62558
524.802,-214.945,62768
524.516,-225.368,62765
524.229,-235.802,62823
523.942,-246.247,62808
523.655,-256.704,62944
523.368,-267.173,63518
523.081,-277.653,65407
522.794,-288.144,66653
522.507,-298.647,66725
522.22,-309.161,66960
521.933,-319.687,66465
521.647,-330.225,66333
521.36,-340.774,66299
521.073,-351.335,66039
520.786,-361.908,66113
520.499,-372.492,65894
520.212,-383.088,65760
519.925,-393.695,65593
519.638,-404.314,65309
519.351,-414.945,65236
519.064,-425.588,64925
518.778,-436.242,64853
518.491,-446.909,64677
518.204,-457.587,64533
517.917,-468.277,64406
517.63,-478.978,64279
517.343,-489.692,64091
517.056,-500.417,63968
516.769,-511.155,64056
516.482,-521.904,64161
516.195,-532.665,64021
515.909,-543.439,63926
515.622,-554.224,63818
515.335,-565.021,63981
515.048,-575.831,63921
514.761,-586.652,63758
514.474,-597.485,63812
514.187,-608.331,63744
513.9,-619.188,63717
513.613,-630.058,63567
513.326,-640.94,63450
513.04,-651.834,63490
512.753,-662.74,63362
512.466,-673.659,63271
512.179,-684.589,63300
511.892,-695.532,63259
511.605,-706.488,63161
511.318,-717.455,63102
511.031,-728.435,63088
510.744,-739.427,63070
510.457,-750.432,62907
510.17,-761.448,63107
509.884,-772.478,62778
509.597,-783.52,62605
509.31,-794.574,62761
509.023,-805.64,62641
508.736,-816.719,62535
508.661,-819.612,62593