File: tomke/20240809/raw_data/Si_onTiO2_0mA_30mW_30sec_4acc_517nm_02.txt
Wavelength(nm), Raman shift(cm^-1), Intensity(counts)
525.364,-194.586,59752
525.139,-202.724,60000
524.915,-210.87,59965
524.69,-219.022,60009
524.466,-227.181,60001
524.241,-235.348,59967
524.017,-243.521,60120
523.792,-251.702,59972
523.568,-259.889,59985
523.343,-268.084,60011
523.119,-276.285,60159
522.894,-284.494,60194
522.669,-292.709,60149
522.445,-300.932,60283
522.22,-309.161,60187
521.996,-317.398,60276
521.771,-325.642,60213
521.547,-333.893,60189
521.322,-342.151,60155
521.098,-350.416,60102
520.873,-358.689,60057
520.649,-366.968,60138
520.424,-375.255,60086
520.2,-383.548,60113
519.975,-391.849,60029
519.751,-400.158,60062
519.526,-408.473,60106
519.301,-416.795,60115
519.077,-425.125,60063
518.852,-433.462,60007
518.628,-441.806,60107
518.403,-450.157,60058
518.179,-458.516,59995
517.954,-466.882,60014
517.73,-475.255,60033
517.505,-483.635,60062
517.281,-492.023,60099
517.056,-500.417,60152
516.832,-508.82,60252
516.607,-517.229,65273
516.383,-525.646,61186
516.158,-534.07,60216
515.933,-542.501,60049
515.709,-550.94,60099
515.484,-559.386,60012
515.26,-567.84,60040
515.035,-576.301,59991
514.811,-584.769,60041
514.586,-593.245,60048
514.362,-601.728,60050
514.137,-610.218,60095
513.913,-618.716,60019
513.688,-627.221,60038
513.464,-635.734,60048
513.239,-644.254,60109
513.015,-652.782,60008
512.79,-661.317,59994
512.565,-669.86,60062
512.341,-678.41,60020
512.116,-686.967,59992
511.892,-695.532,60001
511.667,-704.105,59972
511.443,-712.685,60075
511.218,-721.273,60030
510.994,-729.868,59978
510.769,-738.471,60034
510.545,-747.081,60000
510.32,-755.699,60001
510.096,-764.325,60057
509.871,-772.958,60059
509.647,-781.598,60003
509.422,-790.247,59985
509.198,-798.903,59984
508.973,-807.566,59960
508.748,-816.237,59962
525.239,-199.106,59965
525.015,-207.249,59967
524.79,-215.398,60055
524.565,-223.554,60035
524.341,-231.717,60009
524.116,-239.888,59993
523.892,-248.065,59968
523.667,-256.249,60046
523.443,-264.441,60029
523.218,-272.639,60093
522.994,-280.844,60133
522.769,-289.057,60242
522.545,-297.276,60283
522.32,-305.503,60320
522.096,-313.737,60191
521.871,-321.977,60244
521.647,-330.225,60136
521.422,-338.48,60163
521.198,-346.742,60101
520.973,-355.011,60176
520.748,-363.287,60171
520.524,-371.571,60007
520.299,-379.861,60140
520.075,-388.159,60099
519.85,-396.464,60129
519.626,-404.776,60080
519.401,-413.095,60024
519.177,-421.422,60021
518.952,-429.756,60095
518.728,-438.096,60070
518.503,-446.445,60046
518.279,-454.8,59983
518.054,-463.163,60013
517.83,-471.532,59970
517.605,-479.909,60104
517.38,-488.294,60100
517.156,-496.685,60115
516.931,-505.084,60065
516.707,-513.491,60963
516.482,-521.904,64662
516.258,-530.325,60320
516.033,-538.753,60040
515.809,-547.189,60056
515.584,-555.632,60022
515.36,-564.082,59964
515.135,-572.539,59934
514.911,-581.004,60034
514.686,-589.477,60063
514.462,-597.957,60000
514.237,-606.444,60085
514.012,-614.938,60091
513.788,-623.44,60024
513.563,-631.95,60093
513.339,-640.467,59999
513.114,-648.991,60024
512.89,-657.523,59972
512.665,-666.062,59956
512.441,-674.609,59996
512.216,-683.163,60048
511.992,-691.725,60003
511.767,-700.294,60005
511.543,-708.871,60008
511.318,-717.455,60023
511.094,-726.047,59936
510.869,-734.646,59915
510.644,-743.253,60014
510.42,-751.868,60004
510.195,-760.49,59995
509.971,-769.12,59985
509.746,-777.757,60006
509.522,-786.402,60062
509.297,-795.055,59959
509.073,-803.715,59994
508.848,-812.383,60014
525.339,-195.49,59857
525.114,-203.629,60083
524.89,-211.775,59986
524.665,-219.928,59950
524.441,-228.088,60026
524.216,-236.256,60058
523.992,-244.43,60011
523.767,-252.611,60102
523.543,-260.799,60051
523.318,-268.994,60112
523.094,-277.197,60086
522.869,-285.406,60161
522.644,-293.622,60180
522.42,-301.846,60336
522.195,-310.076,60212
521.971,-318.314,60221
521.746,-326.559,60226
521.522,-334.81,60118
521.297,-343.069,60093
521.073,-351.335,60093
520.848,-359.608,60081
520.624,-367.889,60134
520.399,-376.176,60087
520.175,-384.47,60055
519.95,-392.772,60138
519.726,-401.081,60025
519.501,-409.397,60017
519.277,-417.72,59980
519.052,-426.051,60134
518.827,-434.389,60063
518.603,-442.733,60048
518.378,-451.086,60104
518.154,-459.445,60039
517.929,-467.812,60111
517.705,-476.185,60044
517.48,-484.567,60059
517.256,-492.955,59981
517.031,-501.351,60244
516.807,-509.754,60315
516.582,-518.164,66687
516.358,-526.582,60837
516.133,-535.006,60153
515.909,-543.439,60054
515.684,-551.878,60090
515.459,-560.325,60063
515.235,-568.78,60053
515.01,-577.241,60009
514.786,-585.71,59957
514.561,-594.187,60044
514.337,-602.671,60099
514.112,-611.162,60051
513.888,-619.661,60064
513.663,-628.167,60057
513.439,-636.68,60087
513.214,-645.201,60064
512.99,-653.73,60017
512.765,-662.266,60037
512.541,-670.809,60056
512.316,-679.36,60046
512.091,-687.919,60026
511.867,-696.485,59968
511.642,-705.058,60029
511.418,-713.639,59962
511.193,-722.227,60065
510.969,-730.823,60089
510.744,-739.427,60005
510.52,-748.038,60019
510.295,-756.657,59991
510.071,-765.283,60041
509.846,-773.917,60006
509.622,-782.559,59950
509.397,-791.208,60066
509.173,-799.865,59972
508.948,-808.529,60005
508.723,-817.201,60031
525.214,-200.011,59995
524.99,-208.154,60004
524.765,-216.304,59952
524.541,-224.461,59947
524.316,-232.625,59927
524.091,-240.796,60046
523.867,-248.974,60019
523.642,-257.159,59990
523.418,-265.351,60069
523.193,-273.55,60080
522.969,-281.757,60144
522.744,-289.97,60211
522.52,-298.19,60281
522.295,-306.417,60314
522.071,-314.652,60150
521.846,-322.893,60204
521.622,-331.142,60247
521.397,-339.398,60145
521.173,-347.66,60083
520.948,-355.93,60133
520.723,-364.208,60177
520.499,-372.492,60051
520.274,-380.783,60096
520.05,-389.082,60014
519.825,-397.387,60069
519.601,-405.7,60040
519.376,-414.02,59968
519.152,-422.348,60057
518.927,-430.682,60000
518.703,-439.024,59989
518.478,-447.373,60093
518.254,-455.729,59955
518.029,-464.092,60052
517.805,-472.463,60102
517.58,-480.841,59979
517.356,-489.226,60031
517.131,-497.618,60098
516.906,-506.018,60101
516.682,-514.425,61256
516.457,-522.839,63509
516.233,-531.261,60258
516.008,-539.69,60044
515.784,-548.126,59974
515.559,-556.57,60002
515.335,-565.021,60087
515.11,-573.48,59957
514.886,-581.945,59940
514.661,-590.419,59966
514.437,-598.899,60037
514.212,-607.387,60013
513.988,-615.883,60041
513.763,-624.385,59991
513.538,-632.896,60121
513.314,-641.413,60009
513.089,-649.939,60010
512.865,-658.471,60022
512.64,-667.011,60018
512.416,-675.559,59956
512.191,-684.114,60052
511.967,-692.677,60042
511.742,-701.247,60042
511.518,-709.824,59982
511.293,-718.409,60009
511.069,-727.002,59979
510.844,-735.602,60003
510.62,-744.21,60018
510.395,-752.826,59991
510.17,-761.448,60020
509.946,-770.079,60025
509.721,-778.717,59990
509.497,-787.363,60078
509.272,-796.016,59965
509.048,-804.677,59941
508.823,-813.346,60001
508.661,-819.612,60001